Wavelength (nm)	EQE (%)	Current (A)	Dark Current (A) -> 	-457.930900000E-12	
400.000000	6.850069	-1.448861E-7
403.000000	7.496017	-3.603386E-7
406.000000	7.359644	-5.749402E-7
409.000000	7.723266	-8.493651E-7
412.000000	7.939187	-1.337422E-6
415.000000	7.491117	-6.026305E-7
418.000000	8.313862	-5.799591E-7
421.000000	8.092526	-6.637327E-7
424.000000	8.117452	-6.019382E-7
427.000000	8.040945	-7.791895E-7
430.000000	8.024433	-1.240501E-6
433.000000	7.814860	-1.132149E-6
436.000000	7.660787	-1.100253E-6
439.000000	7.772112	-1.224583E-6
442.000000	7.803376	-1.291105E-6
445.000000	7.865287	-1.478574E-6
448.000000	7.915328	-1.689268E-6
451.000000	7.765464	-1.460305E-6
454.000000	8.249944	-1.428172E-6
457.000000	8.280523	-1.600379E-6
460.000000	8.669834	-1.232105E-6
463.000000	8.653929	-2.114597E-6
466.000000	9.149289	-1.760806E-6
469.000000	9.189209	-1.627407E-6
472.000000	9.358824	-1.533569E-6
475.000000	9.346203	-1.452566E-6
478.000000	9.727892	-1.940763E-6
481.000000	10.159461	-1.687752E-6
484.000000	10.126470	-1.622339E-6
487.000000	10.301638	-2.279429E-6
490.000000	10.595019	-1.929490E-6
493.000000	10.600710	-1.962849E-6
496.000000	10.737224	-2.391984E-6
499.000000	10.917613	-2.423967E-6
502.000000	11.177626	-2.254487E-6
505.000000	11.252097	-2.763762E-6
508.000000	11.367269	-3.603446E-6
511.000000	11.322387	-4.126306E-6
514.000000	11.261928	-2.630343E-6
517.000000	11.511589	-2.648319E-6
520.000000	11.629720	-4.604482E-6
523.000000	11.581141	-4.177154E-6
526.000000	11.471422	-2.454673E-6
529.000000	11.746781	-3.327313E-6
532.000000	11.600360	-3.570482E-6
535.000000	11.157642	-1.598800E-6
538.000000	11.789706	-2.951564E-6
541.000000	11.560965	-3.882915E-6
544.000000	11.276338	-1.717544E-6
547.000000	11.737013	-3.324977E-6
550.000000	11.686525	-2.996300E-6
553.000000	11.732410	-2.171872E-6
556.000000	11.843825	-2.974215E-6
559.000000	11.892468	-2.069372E-6
562.000000	11.756794	-2.620847E-6
565.000000	11.759571	-2.455849E-6
568.000000	11.480488	-2.365890E-6
571.000000	11.501508	-2.816640E-6
574.000000	11.230422	-2.541607E-6
577.000000	11.189272	-3.768881E-6
580.000000	10.935353	-2.617684E-6
583.000000	10.853451	-2.755582E-6
586.000000	10.973071	-3.616514E-6
589.000000	10.880028	-2.471726E-6
592.000000	10.358842	-1.353869E-6
595.000000	10.239621	-1.600023E-6
598.000000	10.126538	-1.256421E-6
601.000000	10.409959	-1.765225E-6
604.000000	10.390211	-1.824110E-6
607.000000	10.581643	-1.991528E-6
610.000000	10.829023	-2.079332E-6
613.000000	11.132400	-3.640961E-6
616.000000	10.924419	-4.532309E-6
619.000000	10.755100	-2.561930E-6
622.000000	11.423640	-5.405490E-6
625.000000	10.343383	-5.877973E-6
628.000000	10.519158	-3.101891E-6
631.000000	10.748219	-3.829192E-6
634.000000	10.394912	-4.525877E-6
637.000000	10.067617	-5.621409E-6
640.000000	9.710936	-5.351495E-6
643.000000	9.658132	-5.060022E-6
646.000000	9.420661	-5.885400E-6
649.000000	9.343414	-5.662119E-6
652.000000	9.265754	-7.026141E-6
655.000000	9.118604	-6.358004E-6
658.000000	9.124319	-6.886913E-6
661.000000	8.937764	-8.085754E-6
664.000000	9.043692	-7.232754E-6
667.000000	9.173348	-8.277244E-6
670.000000	9.153118	-8.284136E-6
673.000000	9.192566	-8.693485E-6
676.000000	9.076514	-9.081432E-6
679.000000	9.106194	-9.056573E-6
682.000000	9.033944	-9.145886E-6
685.000000	8.923903	-9.569163E-6
688.000000	8.587010	-9.145911E-6
691.000000	8.420422	-9.067551E-6
694.000000	8.030636	-8.325129E-6
697.000000	7.722835	-7.822217E-6
700.000000	7.300988	-8.137744E-6
703.000000	6.805228	-7.707610E-6
706.000000	6.307822	-7.364233E-6
709.000000	5.793395	-6.538189E-6
712.000000	5.281860	-6.794437E-6
715.000000	4.734513	-5.289776E-6
718.000000	4.175752	-4.420095E-6
721.000000	3.664996	-4.807545E-6
724.000000	3.121487	-3.195491E-6
727.000000	2.696343	-3.112998E-6
730.000000	2.217157	-2.262872E-6
733.000000	1.877486	-1.866846E-6
736.000000	1.536864	-1.545728E-6
739.000000	1.242915	-1.044129E-6
742.000000	1.016139	-9.669743E-7
745.000000	0.809682	-6.277335E-7
748.000000	0.659279	-5.408318E-7
751.000000	0.521762	-4.121444E-7
754.000000	0.414807	-2.855991E-7
757.000000	0.332141	-2.608986E-7
760.000000	0.259174	-1.651742E-7
763.000000	0.209437	-1.458808E-7
766.000000	0.166303	-1.053979E-7
769.000000	0.133325	-7.590040E-8
772.000000	0.106688	-6.730583E-8
775.000000	0.085731	-4.610930E-8
778.000000	0.070783	-4.188228E-8
781.000000	0.057700	-3.238009E-8
784.000000	0.048254	-2.553386E-8
787.000000	0.040435	-2.328782E-8
790.000000	0.034009	-1.782300E-8
793.000000	0.029192	-1.714825E-8
796.000000	0.024891	-1.386681E-8
799.000000	0.021686	-1.212417E-8
802.000000	0.018799	-1.119214E-8
805.000000	0.016373	-9.046611E-9
808.000000	0.014425	-8.794810E-9
811.000000	0.012759	-7.073842E-9
814.000000	0.011478	-6.756003E-9
817.000000	0.010227	-6.018695E-9
820.000000	0.009256	-5.316637E-9
823.000000	0.008419	-5.393245E-9
826.000000	0.007650	-4.412014E-9
829.000000	0.006959	-4.571477E-9
832.000000	0.006345	-3.949415E-9
835.000000	0.005865	-3.965008E-9
838.000000	0.005331	-3.645118E-9
841.000000	0.004958	-3.177889E-9
844.000000	0.004550	-3.184681E-9
847.000000	0.004212	-2.763986E-9
850.000000	0.003879	-2.769582E-9
853.000000	0.003607	-2.406147E-9
856.000000	0.003372	-2.267117E-9
859.000000	0.003101	-2.100367E-9
862.000000	0.002928	-1.812271E-9
865.000000	0.002757	-1.708594E-9
868.000000	0.002582	-1.489573E-9
871.000000	0.002447	-1.377919E-9
874.000000	0.002335	-1.210289E-9
877.000000	0.002217	-1.092047E-9
880.000000	0.002105	-1.020245E-9
883.000000	0.002009	-9.124853E-10
886.000000	0.001917	-8.589421E-10
889.000000	0.001824	-7.848411E-10
892.000000	0.001762	-7.312569E-10
895.000000	0.001682	-6.714680E-10
898.000000	0.001629	-6.458114E-10
901.000000	0.001580	-6.085641E-10
904.000000	0.001496	-6.008914E-10
907.000000	0.001405	-5.528155E-10
910.000000	0.001400	-5.422282E-10
913.000000	0.001285	-5.220677E-10
916.000000	0.001300	-4.996961E-10
919.000000	0.001229	-4.898181E-10
922.000000	0.001163	-4.664900E-10
925.000000	0.001169	-4.458775E-10
928.000000	0.001110	-4.408386E-10
931.000000	0.001104	-4.050754E-10
934.000000	0.001040	-4.042781E-10
937.000000	0.001020	-3.861120E-10
940.000000	0.001073	-3.774424E-10
943.000000	0.000991	-3.546539E-10
946.000000	0.001038	-3.509233E-10
949.000000	0.000974	-3.469113E-10
952.000000	0.001015	-3.432567E-10
955.000000	0.001031	-3.295897E-10
958.000000	0.001039	-3.220524E-10
961.000000	0.001059	-3.148961E-10
964.000000	0.001032	-3.058394E-10
967.000000	0.001098	-3.096873E-10
970.000000	0.001063	-2.950347E-10
973.000000	0.001121	-2.978268E-10
976.000000	0.001139	-2.908698E-10
979.000000	0.001186	-2.796019E-10
982.000000	0.001293	-2.805169E-10
985.000000	0.001347	-2.858897E-10
988.000000	0.001365	-2.832446E-10
991.000000	0.001384	-2.812970E-10
994.000000	0.001457	-2.758948E-10
997.000000	0.001526	-2.797836E-10
1000.000000	0.001444	-2.660580E-10
1003.000000	0.001477	-2.701933E-10
1006.000000	0.001553	-2.760943E-10
1009.000000	0.001616	-2.760881E-10
1012.000000	0.001564	-2.725044E-10
1015.000000	0.001549	-2.742875E-10
1018.000000	0.001583	-2.808806E-10
1021.000000	0.001446	-2.627555E-10
1024.000000	0.001451	-2.727331E-10
1027.000000	0.001335	-2.743757E-10
1030.000000	0.001214	-2.688440E-10
1033.000000	0.001158	-2.679701E-10
1036.000000	0.001040	-2.678823E-10
1039.000000	0.000939	-2.741411E-10
1042.000000	0.001003	-2.622217E-10
1045.000000	0.001243	-2.713138E-10
1048.000000	0.001263	-2.691199E-10
1051.000000	0.001237	-2.692545E-10
1054.000000	0.001055	-2.615238E-10
1057.000000	0.000976	-2.727802E-10
1060.000000	0.000829	-2.623391E-10
1063.000000	0.000695	-2.668910E-10
1066.000000	0.000530	-2.653010E-10
1069.000000	0.000258	-2.751849E-10
1072.000000	0.000136	-2.972929E-10
1075.000000	0.000412	-2.672604E-10
1078.000000	0.000591	-2.675067E-10
1081.000000	0.000728	-2.684043E-10
1084.000000	0.000781	-2.688675E-10
1087.000000	0.000819	-2.556814E-10
1090.000000	0.000826	-2.515461E-10
1093.000000	0.000919	-2.678880E-10
1096.000000	0.000917	-2.638467E-10
1099.000000	0.000871	-2.697476E-10
