Voltage (V)	Current (A)	Current Density (A/m^2)	 Dividing Wavelength (nm) = 620  Light Power Density (W/m^2) = 1017.183426  Total Light Power Density (W/m^2) = 1017.183426	
-0.199977	-0.000370	-46.239900
-0.182586	-0.000371	-46.383800
-0.165203	-0.000370	-46.300325
-0.147850	-0.000369	-46.135575
-0.130429	-0.000364	-45.499300
-0.113041	-0.000365	-45.616475
-0.095626	-0.000365	-45.642538
-0.078238	-0.000363	-45.365963
-0.060820	-0.000361	-45.110363
-0.043494	-0.000361	-45.078812
-0.026079	-0.000356	-44.547600
-0.008689	-0.000353	-44.091763
0.008684	-0.000351	-43.924300
0.026108	-0.000350	-43.797425
0.043493	-0.000346	-43.192688
0.060853	-0.000344	-43.047338
0.078241	-0.000338	-42.295063
0.095662	-0.000340	-42.557875
0.113047	-0.000339	-42.350813
0.130438	-0.000336	-42.043675
0.147859	-0.000336	-41.981650
0.165213	-0.000327	-40.898225
0.182601	-0.000330	-41.220000
0.199994	-0.000321	-40.105000
0.217409	-0.000320	-40.030063
0.234797	-0.000318	-39.692763
0.252149	-0.000316	-39.481488
0.269537	-0.000310	-38.694263
0.286956	-0.000303	-37.818038
0.304345	-0.000304	-38.003512
0.321732	-0.000295	-36.917488
0.339158	-0.000292	-36.450013
0.356511	-0.000287	-35.836325
0.373899	-0.000280	-35.013075
0.391285	-0.000277	-34.663050
0.408704	-0.000269	-33.644613
0.426091	-0.000266	-33.212175
0.443514	-0.000257	-32.177750
0.460836	-0.000249	-31.177925
0.478262	-0.000244	-30.505650
0.495647	-0.000235	-29.383263
0.513067	-0.000228	-28.518187
0.530451	-0.000216	-27.009138
0.547836	-0.000206	-25.736450
0.565190	-0.000199	-24.845525
0.582580	-0.000188	-23.473625
0.600004	-0.000177	-22.127925
0.617388	-0.000163	-20.370275
0.634810	-0.000152	-18.975975
0.652128	-0.000135	-16.933963
0.669547	-0.000120	-14.989400
0.686932	-0.000102	-12.714763
0.704377	-8.010971E-5	-10.013714
0.721747	-5.556999E-5	-6.946249
0.739129	-2.794642E-5	-3.493302
0.756468	5.041980E-6	0.630247
0.773884	4.276751E-5	5.345939
0.791260	8.554318E-5	10.692898
0.808662	0.000133	16.581437
0.826083	0.000185	23.074200
0.843470	0.000241	30.079700
0.860822	0.000301	37.598550
0.878209	0.000364	45.487988
0.895626	0.000429	53.668550
0.913014	0.000497	62.100988
0.930396	0.000568	71.050800
0.947818	0.000642	80.189788
0.965168	0.000717	89.573525
0.982557	0.000792	99.011287
0.999938	0.000872	108.957313
