Wavelength (nm)	EQE (%)	Current (A)	Dark Current (A) -> 	-471.856180000E-12	
400.000000	21.099202	-4.566916E-7
401.000000	22.456523	-6.727142E-7
402.000000	22.190888	-1.009931E-6
403.000000	22.256697	-1.505867E-6
404.000000	22.397294	-2.035018E-6
405.000000	22.258111	-2.701853E-6
406.000000	22.436737	-3.736402E-6
407.000000	22.302227	-4.036743E-6
408.000000	22.282518	-4.386259E-6
409.000000	22.197219	-4.884741E-6
410.000000	22.571838	-4.982092E-6
411.000000	22.637426	-6.633675E-6
412.000000	22.452050	-7.655758E-6
413.000000	22.620599	-1.001401E-5
414.000000	22.325675	-1.151049E-5
415.000000	22.354913	-1.149756E-5
416.000000	22.156270	-1.087587E-5
417.000000	22.015791	-9.669657E-6
418.000000	21.720019	-6.489918E-6
419.000000	22.215799	-4.839001E-6
420.000000	22.307565	-4.953119E-6
421.000000	22.286751	-5.394836E-6
422.000000	22.261000	-4.881209E-6
423.000000	22.386788	-5.104160E-6
424.000000	22.289536	-5.670179E-6
425.000000	22.270278	-6.116878E-6
426.000000	22.329579	-6.518867E-6
427.000000	22.354021	-6.791108E-6
428.000000	22.681121	-7.575609E-6
429.000000	22.656231	-8.443435E-6
430.000000	22.444960	-9.076552E-6
431.000000	22.977942	-9.461144E-6
432.000000	22.698689	-9.238927E-6
433.000000	22.890621	-9.470767E-6
434.000000	22.620807	-1.048598E-5
435.000000	22.653362	-1.072176E-5
436.000000	22.927082	-1.092620E-5
437.000000	23.344652	-1.199394E-5
438.000000	23.407481	-1.252488E-5
439.000000	23.353418	-1.228594E-5
440.000000	23.465769	-1.223867E-5
441.000000	23.437305	-1.342014E-5
442.000000	23.548010	-1.316507E-5
443.000000	23.812930	-1.273966E-5
444.000000	24.170141	-1.275703E-5
445.000000	24.301278	-1.275196E-5
446.000000	24.712310	-1.261019E-5
447.000000	24.890669	-1.419926E-5
448.000000	25.160685	-1.619780E-5
449.000000	25.189498	-1.511210E-5
450.000000	25.243242	-1.401917E-5
451.000000	25.511447	-1.552112E-5
452.000000	25.733430	-1.651303E-5
453.000000	26.039944	-1.548019E-5
454.000000	26.098338	-1.359622E-5
455.000000	26.544481	-1.453297E-5
456.000000	26.851307	-1.723740E-5
457.000000	26.941730	-1.912667E-5
458.000000	27.289145	-1.975302E-5
459.000000	27.191217	-1.861720E-5
460.000000	27.250561	-1.739452E-5
461.000000	27.833935	-1.668457E-5
462.000000	27.919955	-1.634071E-5
463.000000	28.056911	-1.649836E-5
464.000000	27.950700	-1.639496E-5
465.000000	28.597442	-1.695051E-5
466.000000	28.437006	-1.579863E-5
467.000000	28.256525	-1.273198E-5
468.000000	29.226971	-1.279526E-5
469.000000	29.859048	-1.693205E-5
470.000000	29.139496	-1.755926E-5
471.000000	28.900843	-1.330617E-5
472.000000	29.548214	-1.260545E-5
473.000000	30.031388	-1.762075E-5
474.000000	29.836009	-1.822654E-5
475.000000	29.307731	-1.386519E-5
476.000000	29.685549	-1.304945E-5
477.000000	30.048647	-1.559852E-5
478.000000	30.360209	-1.480183E-5
479.000000	30.349488	-1.430766E-5
480.000000	31.184372	-1.751587E-5
481.000000	30.142970	-1.674290E-5
482.000000	30.240029	-1.222571E-5
483.000000	31.026655	-1.276439E-5
484.000000	31.111529	-1.630303E-5
485.000000	30.094592	-1.334851E-5
486.000000	30.791286	-1.208601E-5
487.000000	31.292026	-1.461615E-5
488.000000	30.995561	-1.443539E-5
489.000000	31.656012	-1.249575E-5
490.000000	31.201007	-1.369085E-5
491.000000	31.319078	-1.524191E-5
492.000000	31.545156	-1.693567E-5
493.000000	30.938871	-1.768177E-5
494.000000	30.777654	-1.602800E-5
495.000000	31.153606	-1.573251E-5
496.000000	31.132900	-1.802588E-5
497.000000	30.774408	-1.910634E-5
498.000000	30.708129	-1.751929E-5
499.000000	30.948694	-1.706530E-5
500.000000	31.109839	-1.907324E-5
501.000000	30.868036	-2.270307E-5
502.000000	30.437617	-2.145474E-5
503.000000	30.632006	-1.999912E-5
504.000000	29.881379	-2.356820E-5
505.000000	30.510428	-2.672946E-5
506.000000	30.053473	-2.441114E-5
507.000000	29.846272	-1.945661E-5
508.000000	30.177303	-1.924511E-5
509.000000	29.508251	-1.927707E-5
510.000000	29.468628	-1.683995E-5
511.000000	29.349319	-1.489651E-5
512.000000	30.345842	-1.716099E-5
513.000000	29.851887	-1.927674E-5
514.000000	29.530147	-2.357793E-5
515.000000	29.786192	-2.721550E-5
516.000000	30.101009	-3.503056E-5
517.000000	29.607792	-4.133475E-5
518.000000	29.232516	-3.521039E-5
519.000000	28.878774	-2.832543E-5
520.000000	28.772783	-2.677337E-5
521.000000	28.659987	-2.048659E-5
522.000000	28.307273	-1.596517E-5
523.000000	28.451321	-1.466693E-5
524.000000	29.648028	-2.005259E-5
525.000000	29.152940	-2.761185E-5
526.000000	28.668491	-3.026391E-5
527.000000	29.183570	-3.331975E-5
528.000000	28.498801	-3.694935E-5
529.000000	28.424279	-3.529090E-5
530.000000	28.211876	-2.642627E-5
531.000000	27.654714	-1.947627E-5
532.000000	28.998936	-1.623119E-5
533.000000	27.849593	-1.646486E-5
534.000000	28.009158	-1.797324E-5
535.000000	28.587232	-2.301436E-5
536.000000	28.412386	-3.304484E-5
537.000000	27.590528	-3.234739E-5
538.000000	27.262587	-2.393985E-5
539.000000	27.573756	-2.381678E-5
540.000000	26.937802	-1.930564E-5
541.000000	27.318364	-1.705459E-5
542.000000	27.538149	-1.789929E-5
543.000000	27.550762	-2.094279E-5
544.000000	27.388880	-2.852176E-5
545.000000	27.297784	-3.075254E-5
546.000000	27.090114	-2.728064E-5
547.000000	27.653712	-2.778576E-5
548.000000	26.698549	-2.161143E-5
549.000000	26.634582	-1.570559E-5
550.000000	26.813333	-1.563533E-5
551.000000	26.854150	-1.728141E-5
552.000000	27.259628	-2.340480E-5
553.000000	26.873935	-2.858674E-5
554.000000	26.661448	-2.940255E-5
555.000000	26.662190	-2.982570E-5
556.000000	26.417216	-2.599465E-5
557.000000	26.004387	-2.007030E-5
558.000000	26.203321	-1.907810E-5
559.000000	26.542083	-2.135260E-5
560.000000	26.798699	-2.585210E-5
561.000000	26.190734	-3.022223E-5
562.000000	26.574907	-2.762770E-5
563.000000	26.411377	-2.710472E-5
564.000000	26.231724	-2.294753E-5
565.000000	26.128786	-1.774085E-5
566.000000	26.455860	-1.783453E-5
567.000000	26.438408	-1.896935E-5
568.000000	26.286422	-2.273049E-5
569.000000	25.995280	-2.600899E-5
570.000000	25.943348	-2.457046E-5
571.000000	25.718628	-2.272725E-5
572.000000	25.860617	-2.071269E-5
573.000000	25.571131	-1.670393E-5
574.000000	25.968468	-1.713373E-5
575.000000	25.838897	-1.987596E-5
576.000000	26.028970	-2.568823E-5
577.000000	25.683711	-2.828858E-5
578.000000	25.702999	-2.977791E-5
579.000000	25.205052	-2.719486E-5
580.000000	25.379918	-2.244407E-5
581.000000	25.197654	-2.001894E-5
582.000000	25.292892	-1.911906E-5
583.000000	25.315774	-2.120698E-5
584.000000	25.368541	-2.550647E-5
585.000000	25.066469	-2.680912E-5
586.000000	24.985544	-2.556971E-5
587.000000	25.045085	-2.418494E-5
588.000000	25.001881	-2.024694E-5
589.000000	24.880019	-1.924644E-5
590.000000	24.909624	-1.998139E-5
591.000000	25.119853	-2.889926E-5
592.000000	25.025027	-2.902212E-5
593.000000	25.155462	-2.905082E-5
594.000000	25.124961	-2.778898E-5
595.000000	25.190094	-2.719597E-5
596.000000	25.089776	-2.734815E-5
597.000000	25.076021	-2.823312E-5
598.000000	24.806017	-3.048243E-5
599.000000	24.855937	-3.259930E-5
600.000000	24.875878	-3.398530E-5
601.000000	24.698702	-3.498898E-5
602.000000	24.501359	-3.446705E-5
603.000000	24.628065	-3.383023E-5
604.000000	24.468837	-3.156684E-5
605.000000	24.551626	-3.018745E-5
606.000000	24.587495	-3.056802E-5
607.000000	24.794888	-3.127125E-5
608.000000	24.621277	-3.398349E-5
609.000000	24.775169	-3.693219E-5
610.000000	24.853231	-3.881638E-5
611.000000	24.968899	-4.027845E-5
612.000000	24.926874	-3.963062E-5
613.000000	25.000353	-3.812533E-5
614.000000	25.057466	-3.560755E-5
615.000000	24.921912	-3.352685E-5
616.000000	25.198513	-3.400231E-5
617.000000	25.230353	-3.579494E-5
618.000000	25.392679	-3.944495E-5
619.000000	25.584605	-4.235300E-5
620.000000	25.755868	-4.383522E-5
621.000000	25.856843	-4.513338E-5
622.000000	25.834338	-4.591254E-5
623.000000	26.009565	-4.736780E-5
624.000000	26.075815	-4.867053E-5
625.000000	25.721262	-5.091503E-5
626.000000	25.803735	-4.808721E-5
627.000000	25.171526	-4.719898E-5
628.000000	25.215137	-4.719277E-5
629.000000	25.537036	-4.751632E-5
630.000000	25.557436	-4.832199E-5
631.000000	25.649736	-5.056489E-5
632.000000	25.743967	-5.308816E-5
633.000000	25.765634	-5.490815E-5
634.000000	25.921455	-5.661032E-5
635.000000	25.747824	-5.609008E-5
636.000000	25.923871	-5.553422E-5
637.000000	25.919543	-5.560033E-5
638.000000	25.843970	-5.541522E-5
639.000000	25.893519	-5.590646E-5
640.000000	25.934640	-5.503414E-5
641.000000	25.872890	-5.386392E-5
642.000000	25.855845	-5.393632E-5
643.000000	25.813019	-5.408537E-5
644.000000	25.877817	-5.692471E-5
645.000000	25.911344	-5.969125E-5
646.000000	25.909539	-6.156314E-5
647.000000	25.877518	-6.146944E-5
648.000000	25.812289	-5.863766E-5
649.000000	25.856909	-5.669782E-5
650.000000	25.881355	-5.524163E-5
651.000000	25.729161	-5.600230E-5
652.000000	25.674953	-5.907247E-5
653.000000	25.681202	-6.106184E-5
654.000000	25.552874	-6.238987E-5
655.000000	25.547740	-6.007475E-5
656.000000	25.472514	-5.711472E-5
657.000000	25.384936	-5.594758E-5
658.000000	25.292588	-5.466992E-5
659.000000	25.320128	-5.758039E-5
660.000000	25.176130	-6.233455E-5
661.000000	25.157907	-6.457966E-5
662.000000	25.088711	-6.557522E-5
663.000000	25.156025	-6.211908E-5
664.000000	25.028077	-5.549084E-5
665.000000	24.880843	-5.247966E-5
666.000000	24.883188	-5.415047E-5
667.000000	24.962688	-5.842845E-5
668.000000	24.805428	-6.274949E-5
669.000000	24.721852	-6.593574E-5
670.000000	24.649857	-6.394612E-5
671.000000	24.621804	-5.873961E-5
672.000000	24.563382	-5.710698E-5
673.000000	24.659109	-5.597787E-5
674.000000	24.617619	-5.641024E-5
675.000000	24.747285	-6.194948E-5
676.000000	24.667889	-6.412714E-5
677.000000	24.835694	-6.385191E-5
678.000000	24.862877	-6.383799E-5
679.000000	24.787851	-5.924720E-5
680.000000	24.853381	-5.619441E-5
681.000000	25.061690	-5.918619E-5
682.000000	24.999641	-6.319904E-5
683.000000	25.001528	-6.550233E-5
684.000000	25.182062	-6.711044E-5
685.000000	25.258533	-6.601547E-5
686.000000	25.289890	-5.959236E-5
687.000000	25.512575	-5.815448E-5
688.000000	25.622591	-6.280701E-5
689.000000	25.675730	-6.515437E-5
690.000000	25.791380	-6.883734E-5
691.000000	26.004872	-7.085901E-5
692.000000	26.028261	-6.724543E-5
693.000000	26.475299	-6.377308E-5
694.000000	26.452426	-6.055212E-5
695.000000	26.331109	-6.049951E-5
696.000000	26.597602	-6.427898E-5
697.000000	26.691994	-6.954637E-5
698.000000	26.660891	-7.241621E-5
699.000000	26.710527	-7.036384E-5
700.000000	27.125855	-6.837813E-5
701.000000	27.066320	-6.700624E-5
702.000000	27.167619	-6.379371E-5
703.000000	27.274248	-6.632040E-5
704.000000	27.322337	-7.323764E-5
705.000000	27.472769	-7.474199E-5
706.000000	27.583500	-7.198407E-5
707.000000	27.714735	-7.200239E-5
708.000000	27.907427	-7.063373E-5
709.000000	27.767455	-6.382278E-5
710.000000	27.607093	-6.461868E-5
711.000000	27.636892	-7.591288E-5
712.000000	27.576436	-8.051792E-5
713.000000	27.713114	-7.601063E-5
714.000000	27.727448	-6.961923E-5
715.000000	27.799157	-6.433494E-5
716.000000	27.769415	-6.475350E-5
717.000000	27.645081	-6.667805E-5
718.000000	27.284823	-6.960738E-5
719.000000	27.126732	-7.339047E-5
720.000000	27.028793	-7.286857E-5
721.000000	26.953448	-7.183157E-5
722.000000	26.712374	-6.792890E-5
723.000000	26.648301	-6.356076E-5
724.000000	26.316182	-6.334535E-5
725.000000	26.131020	-6.605230E-5
726.000000	25.906118	-6.795278E-5
727.000000	25.486740	-6.887566E-5
728.000000	25.416252	-6.710211E-5
729.000000	24.963872	-6.319300E-5
730.000000	24.538017	-5.935573E-5
731.000000	24.228915	-5.731707E-5
732.000000	23.596423	-5.704525E-5
733.000000	23.263047	-5.896832E-5
734.000000	22.699597	-6.046630E-5
735.000000	22.276785	-5.844691E-5
736.000000	21.913921	-5.607825E-5
737.000000	21.311157	-5.336077E-5
738.000000	20.747449	-5.009729E-5
739.000000	20.295757	-4.877248E-5
740.000000	19.684609	-4.828864E-5
741.000000	19.243175	-4.832646E-5
742.000000	18.585169	-4.777622E-5
743.000000	18.033549	-4.544549E-5
744.000000	17.427099	-4.188908E-5
745.000000	16.831923	-3.935230E-5
746.000000	16.184040	-3.705511E-5
747.000000	15.598389	-3.585312E-5
748.000000	15.065590	-3.582892E-5
749.000000	14.432373	-3.452364E-5
750.000000	13.852098	-3.307144E-5
751.000000	13.288279	-3.104473E-5
752.000000	12.642068	-2.808293E-5
753.000000	12.034379	-2.602449E-5
754.000000	11.489065	-2.437187E-5
755.000000	10.861089	-2.333900E-5
756.000000	10.343064	-2.268573E-5
757.000000	9.820447	-2.150095E-5
758.000000	9.253187	-1.994650E-5
759.000000	8.767001	-1.851542E-5
760.000000	8.297965	-1.683381E-5
761.000000	7.738596	-1.519390E-5
762.000000	7.290210	-1.428160E-5
763.000000	6.849050	-1.361038E-5
764.000000	6.440827	-1.301372E-5
765.000000	6.043950	-1.218101E-5
766.000000	5.675227	-1.118976E-5
767.000000	5.333382	-1.026568E-5
768.000000	4.967012	-9.274334E-6
769.000000	4.632223	-8.497033E-6
770.000000	4.315687	-7.961495E-6
771.000000	4.033681	-7.550044E-6
772.000000	3.772594	-7.139558E-6
773.000000	3.525415	-6.617858E-6
774.000000	3.290694	-6.010076E-6
775.000000	3.065660	-5.383041E-6
776.000000	2.853231	-4.858173E-6
777.000000	2.656991	-4.539329E-6
778.000000	2.483341	-4.366209E-6
779.000000	2.312522	-4.181398E-6
780.000000	2.159841	-3.941921E-6
781.000000	2.026215	-3.605016E-6
782.000000	1.894490	-3.241541E-6
783.000000	1.772270	-2.931556E-6
784.000000	1.652193	-2.717261E-6
785.000000	1.543417	-2.610852E-6
786.000000	1.453843	-2.495366E-6
787.000000	1.360566	-2.352702E-6
788.000000	1.278057	-2.179808E-6
789.000000	1.204618	-1.969133E-6
790.000000	1.127139	-1.783610E-6
791.000000	1.062254	-1.650970E-6
792.000000	0.993950	-1.575473E-6
793.000000	0.933870	-1.535013E-6
794.000000	0.875545	-1.500833E-6
795.000000	0.832924	-1.441975E-6
796.000000	0.788418	-1.308265E-6
797.000000	0.740434	-1.185859E-6
798.000000	0.701569	-1.114228E-6
799.000000	0.660505	-1.064726E-6
800.000000	0.623791	-1.047609E-6
801.000000	0.590533	-1.037929E-6
802.000000	0.560126	-9.963439E-7
803.000000	0.532017	-9.196237E-7
804.000000	0.506668	-8.312142E-7
805.000000	0.481180	-7.615478E-7
806.000000	0.455185	-7.163912E-7
807.000000	0.432154	-7.006394E-7
808.000000	0.412227	-7.041345E-7
809.000000	0.394377	-6.854578E-7
810.000000	0.377108	-6.372739E-7
811.000000	0.358543	-5.875738E-7
812.000000	0.342866	-5.311746E-7
813.000000	0.325761	-4.898040E-7
814.000000	0.310257	-4.800523E-7
815.000000	0.295681	-4.766039E-7
816.000000	0.282837	-4.774358E-7
817.000000	0.271606	-4.585936E-7
818.000000	0.259807	-4.137678E-7
819.000000	0.248241	-3.739567E-7
820.000000	0.237974	-3.477149E-7
821.000000	0.227411	-3.348368E-7
822.000000	0.216858	-3.369974E-7
823.000000	0.207420	-3.408302E-7
824.000000	0.200121	-3.333289E-7
825.000000	0.191730	-3.124914E-7
826.000000	0.183775	-2.847390E-7
827.000000	0.176124	-2.644407E-7
828.000000	0.168978	-2.561724E-7
829.000000	0.162685	-2.514168E-7
830.000000	0.155128	-2.494143E-7
831.000000	0.148810	-2.461315E-7
832.000000	0.143536	-2.346126E-7
833.000000	0.137114	-2.156654E-7
834.000000	0.132354	-1.981785E-7
835.000000	0.126510	-1.834315E-7
836.000000	0.121286	-1.788161E-7
837.000000	0.116516	-1.777159E-7
838.000000	0.111647	-1.745161E-7
839.000000	0.107161	-1.689670E-7
840.000000	0.103612	-1.608819E-7
841.000000	0.099808	-1.482482E-7
842.000000	0.095249	-1.379797E-7
843.000000	0.091191	-1.339562E-7
844.000000	0.087893	-1.319206E-7
845.000000	0.084585	-1.295805E-7
846.000000	0.081085	-1.249250E-7
847.000000	0.078287	-1.187041E-7
848.000000	0.075253	-1.094609E-7
849.000000	0.072386	-1.008912E-7
850.000000	0.069176	-9.649546E-8
851.000000	0.066565	-9.424548E-8
852.000000	0.063779	-9.121893E-8
853.000000	0.061089	-8.864870E-8
854.000000	0.059077	-8.433668E-8
855.000000	0.056848	-7.821636E-8
856.000000	0.054594	-7.277769E-8
857.000000	0.052693	-6.857773E-8
858.000000	0.050462	-6.612828E-8
859.000000	0.048266	-6.449667E-8
860.000000	0.046458	-6.152205E-8
861.000000	0.044799	-5.750274E-8
862.000000	0.042974	-5.274667E-8
863.000000	0.041424	-4.851836E-8
864.000000	0.039702	-4.565148E-8
865.000000	0.038420	-4.390071E-8
866.000000	0.036963	-4.161515E-8
867.000000	0.035265	-3.994494E-8
868.000000	0.034065	-3.767282E-8
869.000000	0.032764	-3.447906E-8
870.000000	0.031683	-3.232008E-8
871.000000	0.030346	-3.032405E-8
872.000000	0.029161	-2.873641E-8
873.000000	0.028002	-2.773535E-8
874.000000	0.026912	-2.639117E-8
875.000000	0.025876	-2.477883E-8
876.000000	0.024975	-2.317319E-8
877.000000	0.024037	-2.154589E-8
878.000000	0.023115	-2.040698E-8
879.000000	0.022224	-1.937181E-8
880.000000	0.021385	-1.843340E-8
881.000000	0.020511	-1.765358E-8
882.000000	0.019663	-1.666104E-8
883.000000	0.018857	-1.573043E-8
884.000000	0.018178	-1.497561E-8
885.000000	0.017416	-1.397080E-8
886.000000	0.016781	-1.318048E-8
887.000000	0.016130	-1.269598E-8
888.000000	0.015510	-1.219990E-8
889.000000	0.014888	-1.165064E-8
890.000000	0.014340	-1.108601E-8
891.000000	0.013828	-1.052705E-8
892.000000	0.013303	-9.958947E-9
893.000000	0.012776	-9.526754E-9
894.000000	0.012267	-9.300311E-9
895.000000	0.011769	-8.895393E-9
896.000000	0.011326	-8.453370E-9
897.000000	0.010879	-8.131946E-9
898.000000	0.010473	-7.757467E-9
899.000000	0.010077	-7.442658E-9
900.000000	0.009699	-7.147239E-9
901.000000	0.009289	-6.817248E-9
902.000000	0.008928	-6.591871E-9
903.000000	0.008583	-6.282991E-9
904.000000	0.008272	-6.020396E-9
905.000000	0.007942	-5.850131E-9
906.000000	0.007636	-5.582210E-9
907.000000	0.007340	-5.354193E-9
908.000000	0.007040	-5.148963E-9
909.000000	0.006780	-4.919084E-9
910.000000	0.006521	-4.756408E-9
911.000000	0.006260	-4.557154E-9
912.000000	0.006001	-4.379324E-9
913.000000	0.005793	-4.269747E-9
914.000000	0.005564	-4.074482E-9
915.000000	0.005373	-3.929618E-9
916.000000	0.005180	-3.749463E-9
917.000000	0.004975	-3.556573E-9
918.000000	0.004775	-3.463427E-9
919.000000	0.004590	-3.334601E-9
920.000000	0.004425	-3.165640E-9
921.000000	0.004268	-3.074613E-9
922.000000	0.004101	-2.934966E-9
923.000000	0.003953	-2.800233E-9
924.000000	0.003806	-2.705229E-9
925.000000	0.003667	-2.585371E-9
926.000000	0.003531	-2.508274E-9
927.000000	0.003397	-2.420533E-9
928.000000	0.003302	-2.334164E-9
929.000000	0.003153	-2.233553E-9
930.000000	0.003071	-2.122424E-9
931.000000	0.002961	-2.011770E-9
932.000000	0.002846	-1.932681E-9
933.000000	0.002773	-1.857363E-9
934.000000	0.002661	-1.788844E-9
935.000000	0.002588	-1.734795E-9
936.000000	0.002472	-1.637686E-9
937.000000	0.002404	-1.599856E-9
938.000000	0.002322	-1.521078E-9
939.000000	0.002249	-1.456230E-9
940.000000	0.002198	-1.440680E-9
941.000000	0.002124	-1.384855E-9
942.000000	0.002028	-1.325611E-9
943.000000	0.001980	-1.290796E-9
944.000000	0.001907	-1.213021E-9
945.000000	0.001850	-1.162551E-9
946.000000	0.001810	-1.121771E-9
947.000000	0.001760	-1.075631E-9
948.000000	0.001703	-1.050554E-9
949.000000	0.001677	-1.026662E-9
950.000000	0.001634	-9.959303E-10
951.000000	0.001577	-9.570402E-10
952.000000	0.001522	-9.073094E-10
953.000000	0.001484	-8.871016E-10
954.000000	0.001450	-8.656268E-10
955.000000	0.001419	-8.378871E-10
956.000000	0.001377	-8.180016E-10
957.000000	0.001343	-7.902736E-10
958.000000	0.001298	-7.510365E-10
959.000000	0.001294	-7.396627E-10
960.000000	0.001281	-7.132313E-10
961.000000	0.001242	-6.864595E-10
962.000000	0.001211	-6.674366E-10
963.000000	0.001202	-6.595412E-10
964.000000	0.001145	-6.336548E-10
965.000000	0.001154	-6.301767E-10
966.000000	0.001124	-6.057627E-10
967.000000	0.001101	-5.921245E-10
968.000000	0.001087	-5.784984E-10
969.000000	0.001073	-5.707788E-10
970.000000	0.001039	-5.513275E-10
971.000000	0.001044	-5.439130E-10
972.000000	0.001027	-5.290784E-10
973.000000	0.001019	-5.153108E-10
974.000000	0.001018	-5.035736E-10
975.000000	0.001014	-4.958659E-10
976.000000	0.000997	-4.818110E-10
977.000000	0.000984	-4.750654E-10
978.000000	0.000968	-4.695282E-10
979.000000	0.000962	-4.635272E-10
980.000000	0.000928	-4.455718E-10
981.000000	0.000920	-4.379991E-10
982.000000	0.000922	-4.368846E-10
983.000000	0.000918	-4.383273E-10
984.000000	0.000912	-4.325088E-10
985.000000	0.000914	-4.294937E-10
986.000000	0.000874	-4.056371E-10
987.000000	0.000892	-4.050854E-10
988.000000	0.000920	-4.109926E-10
989.000000	0.000889	-3.923216E-10
990.000000	0.000893	-3.897520E-10
991.000000	0.000880	-3.855520E-10
992.000000	0.000860	-3.789476E-10
993.000000	0.000833	-3.697377E-10
994.000000	0.000840	-3.782670E-10
995.000000	0.000832	-3.747117E-10
996.000000	0.000811	-3.662594E-10
997.000000	0.000805	-3.630861E-10
998.000000	0.000815	-3.672509E-10
999.000000	0.000808	-3.652153E-10
1000.000000	0.000784	-3.522045E-10
1001.000000	0.000773	-3.450250E-10
1002.000000	0.000778	-3.459459E-10
1003.000000	0.000794	-3.493718E-10
1004.000000	0.000776	-3.380859E-10
1005.000000	0.000784	-3.418987E-10
1006.000000	0.000782	-3.430719E-10
1007.000000	0.000752	-3.342610E-10
1008.000000	0.000730	-3.271752E-10
1009.000000	0.000747	-3.342144E-10
1010.000000	0.000727	-3.269819E-10
1011.000000	0.000740	-3.316452E-10
1012.000000	0.000744	-3.351877E-10
1013.000000	0.000721	-3.302075E-10
1014.000000	0.000711	-3.271871E-10
1015.000000	0.000711	-3.268235E-10
1016.000000	0.000673	-3.110559E-10
1017.000000	0.000698	-3.267058E-10
1018.000000	0.000656	-3.140241E-10
1019.000000	0.000623	-3.090908E-10
1020.000000	0.000622	-3.189747E-10
1021.000000	0.000610	-3.210278E-10
1022.000000	0.000608	-3.198429E-10
1023.000000	0.000571	-3.014183E-10
1024.000000	0.000571	-3.094072E-10
1025.000000	0.000550	-3.093781E-10
1026.000000	0.000540	-3.187167E-10
1027.000000	0.000503	-3.113962E-10
1028.000000	0.000475	-3.101936E-10
1029.000000	0.000452	-3.107744E-10
1030.000000	0.000459	-3.281842E-10
1031.000000	0.000436	-3.191389E-10
1032.000000	0.000411	-3.058118E-10
1033.000000	0.000427	-3.162764E-10
1034.000000	0.000436	-3.121525E-10
1035.000000	0.000448	-3.046445E-10
1036.000000	0.000481	-3.065623E-10
1037.000000	0.000483	-2.903784E-10
1038.000000	0.000496	-2.861084E-10
1039.000000	0.000521	-2.911882E-10
1040.000000	0.000529	-2.900208E-10
1041.000000	0.000515	-2.796911E-10
1042.000000	0.000533	-2.866537E-10
1043.000000	0.000524	-2.802835E-10
1044.000000	0.000530	-2.831049E-10
1045.000000	0.000545	-2.936048E-10
1046.000000	0.000507	-2.776146E-10
1047.000000	0.000487	-2.750336E-10
1048.000000	0.000475	-2.775850E-10
1049.000000	0.000476	-2.870235E-10
1050.000000	0.000451	-2.796559E-10
1051.000000	0.000442	-2.793918E-10
1052.000000	0.000432	-2.807410E-10
1053.000000	0.000398	-2.698247E-10
1054.000000	0.000397	-2.784710E-10
1055.000000	0.000378	-2.764472E-10
1056.000000	0.000358	-2.780778E-10
1057.000000	0.000333	-2.736259E-10
1058.000000	0.000318	-2.759428E-10
1059.000000	0.000308	-2.908710E-10
1060.000000	0.000261	-2.805826E-10
1061.000000	0.000230	-2.916103E-10
1062.000000	0.000180	-2.824068E-10
1063.000000	0.000122	-3.004972E-10
1064.000000	7.336480E-5	-3.405377E-10
1065.000000	6.719679E-5	-3.533840E-10
1066.000000	9.203925E-5	-3.277442E-10
1067.000000	0.000147	-3.032777E-10
1068.000000	0.000187	-2.874224E-10
1069.000000	0.000229	-2.724644E-10
1070.000000	0.000275	-2.646685E-10
1071.000000	0.000314	-2.686046E-10
1072.000000	0.000342	-2.648856E-10
1073.000000	0.000365	-2.655660E-10
1074.000000	0.000386	-2.612312E-10
1075.000000	0.000414	-2.661878E-10
1076.000000	0.000416	-2.560985E-10
1077.000000	0.000448	-2.677596E-10
1078.000000	0.000458	-2.661526E-10
1079.000000	0.000469	-2.651556E-10
1080.000000	0.000462	-2.566617E-10
1081.000000	0.000488	-2.645513E-10
1082.000000	0.000487	-2.591488E-10
1083.000000	0.000494	-2.597001E-10
1084.000000	0.000508	-2.623927E-10
1085.000000	0.000518	-2.649033E-10
1086.000000	0.000499	-2.541217E-10
1087.000000	0.000513	-2.560163E-10
1088.000000	0.000512	-2.531950E-10
1089.000000	0.000515	-2.548432E-10
1090.000000	0.000523	-2.576356E-10
1091.000000	0.000519	-2.527140E-10
1092.000000	0.000522	-2.511300E-10
1093.000000	0.000539	-2.563977E-10
1094.000000	0.000551	-2.586209E-10
1095.000000	0.000531	-2.443726E-10
1096.000000	0.000546	-2.492414E-10
1097.000000	0.000543	-2.496108E-10
1098.000000	0.000529	-2.418092E-10
1099.000000	0.000538	-2.519514E-10
1100.000000	0.000538	-2.584860E-10
