Wavelength (nm)	EQE (%)	Current (A)	Dark Current (A) -> 	-1.678560020E-9	
400.000000	15.261767	-3.303405E-7
401.000000	16.304567	-4.884244E-7
402.000000	16.029250	-7.295083E-7
403.000000	16.219204	-1.097376E-6
404.000000	16.218084	-1.473575E-6
405.000000	16.172510	-1.963138E-6
406.000000	16.332019	-2.719780E-6
407.000000	16.208204	-2.933714E-6
408.000000	16.227060	-3.194257E-6
409.000000	16.177237	-3.559978E-6
410.000000	16.454589	-3.631883E-6
411.000000	16.504680	-4.836534E-6
412.000000	16.390356	-5.588826E-6
413.000000	16.468828	-7.290656E-6
414.000000	16.424620	-8.468072E-6
415.000000	16.430294	-8.450415E-6
416.000000	16.226099	-7.964921E-6
417.000000	16.368260	-7.189179E-6
418.000000	16.047288	-4.794912E-6
419.000000	16.397327	-3.571633E-6
420.000000	16.581288	-3.681670E-6
421.000000	16.575609	-4.012370E-6
422.000000	16.426172	-3.601796E-6
423.000000	16.586007	-3.781589E-6
424.000000	16.600605	-4.222986E-6
425.000000	16.527902	-4.539645E-6
426.000000	16.487650	-4.813382E-6
427.000000	16.763212	-5.092631E-6
428.000000	16.968465	-5.667553E-6
429.000000	16.998830	-6.335057E-6
430.000000	16.855716	-6.816309E-6
431.000000	16.986546	-6.994193E-6
432.000000	16.947949	-6.898234E-6
433.000000	17.090376	-7.070973E-6
434.000000	16.957779	-7.860857E-6
435.000000	17.052610	-8.070943E-6
436.000000	17.218624	-8.205760E-6
437.000000	17.515191	-8.998898E-6
438.000000	17.523610	-9.376537E-6
439.000000	17.411201	-9.159814E-6
440.000000	17.554118	-9.155424E-6
441.000000	17.798596	-1.019143E-5
442.000000	17.823941	-9.964894E-6
443.000000	18.076380	-9.670668E-6
444.000000	18.164770	-9.587388E-6
445.000000	18.242948	-9.572885E-6
446.000000	18.446045	-9.412642E-6
447.000000	18.718250	-1.067811E-5
448.000000	18.901534	-1.216832E-5
449.000000	18.957789	-1.137347E-5
450.000000	19.054644	-1.058225E-5
451.000000	19.543843	-1.189044E-5
452.000000	19.414562	-1.245824E-5
453.000000	19.442701	-1.155827E-5
454.000000	19.682792	-1.025397E-5
455.000000	19.806757	-1.084410E-5
456.000000	20.151939	-1.293669E-5
457.000000	20.251834	-1.437733E-5
458.000000	20.349478	-1.472980E-5
459.000000	20.509059	-1.404208E-5
460.000000	20.441383	-1.304810E-5
461.000000	20.519969	-1.230034E-5
462.000000	21.212144	-1.241483E-5
463.000000	21.086729	-1.239967E-5
464.000000	20.893502	-1.225544E-5
465.000000	21.531269	-1.276219E-5
466.000000	20.971248	-1.165091E-5
467.000000	21.277111	-9.587157E-6
468.000000	21.638645	-9.473171E-6
469.000000	22.085244	-1.252379E-5
470.000000	22.208318	-1.338258E-5
471.000000	21.320405	-9.816078E-6
472.000000	21.873102	-9.331200E-6
473.000000	22.362002	-1.312078E-5
474.000000	21.993198	-1.343544E-5
475.000000	21.521895	-1.018179E-5
476.000000	21.896519	-9.625476E-6
477.000000	22.195112	-1.152168E-5
478.000000	22.324670	-1.088418E-5
479.000000	22.444179	-1.058086E-5
480.000000	22.463596	-1.261752E-5
481.000000	22.263821	-1.236643E-5
482.000000	22.008248	-8.897692E-6
483.000000	22.591489	-9.294156E-6
484.000000	22.580940	-1.183284E-5
485.000000	21.666052	-9.610016E-6
486.000000	22.602767	-8.871902E-6
487.000000	22.600057	-1.055623E-5
488.000000	22.211461	-1.034442E-5
489.000000	22.401095	-8.842506E-6
490.000000	22.541378	-9.891047E-6
491.000000	22.253958	-1.083023E-5
492.000000	22.517415	-1.208894E-5
493.000000	22.253233	-1.271787E-5
494.000000	22.256211	-1.159031E-5
495.000000	22.704049	-1.146550E-5
496.000000	22.075059	-1.278141E-5
497.000000	21.929959	-1.361525E-5
498.000000	21.795610	-1.243461E-5
499.000000	22.066838	-1.216779E-5
500.000000	22.107297	-1.355384E-5
501.000000	21.917829	-1.612030E-5
502.000000	21.508668	-1.516094E-5
503.000000	21.638850	-1.412764E-5
504.000000	20.852888	-1.644720E-5
505.000000	21.365664	-1.871795E-5
506.000000	20.871968	-1.695340E-5
507.000000	20.888038	-1.361679E-5
508.000000	21.066177	-1.343463E-5
509.000000	20.818434	-1.360021E-5
510.000000	20.237361	-1.156471E-5
511.000000	20.373928	-1.034097E-5
512.000000	20.995954	-1.187350E-5
513.000000	20.976076	-1.354522E-5
514.000000	20.192416	-1.612235E-5
515.000000	20.820105	-1.902323E-5
516.000000	20.729674	-2.412451E-5
517.000000	20.396450	-2.847501E-5
518.000000	20.014687	-2.410757E-5
519.000000	19.943781	-1.956164E-5
520.000000	19.790013	-1.841481E-5
521.000000	19.574280	-1.399199E-5
522.000000	19.271241	-1.086889E-5
523.000000	19.524892	-1.006527E-5
524.000000	19.870114	-1.343925E-5
525.000000	19.740381	-1.869686E-5
526.000000	19.371826	-2.044988E-5
527.000000	19.482894	-2.224420E-5
528.000000	19.327270	-2.505825E-5
529.000000	19.085969	-2.369668E-5
530.000000	18.868189	-1.767397E-5
531.000000	18.429249	-1.297909E-5
532.000000	18.663190	-1.044610E-5
533.000000	18.612397	-1.100377E-5
534.000000	18.720708	-1.201292E-5
535.000000	19.000933	-1.529684E-5
536.000000	18.822770	-2.189170E-5
537.000000	18.344158	-2.150686E-5
538.000000	18.178144	-1.596261E-5
539.000000	18.392851	-1.588679E-5
540.000000	18.010446	-1.290763E-5
541.000000	18.253928	-1.139575E-5
542.000000	18.272333	-1.187668E-5
543.000000	18.363373	-1.395897E-5
544.000000	18.195830	-1.894846E-5
545.000000	18.086559	-2.037556E-5
546.000000	17.959758	-1.808607E-5
547.000000	17.973247	-1.805907E-5
548.000000	17.887919	-1.447957E-5
549.000000	17.859593	-1.053125E-5
550.000000	17.893128	-1.043380E-5
551.000000	17.997292	-1.158177E-5
552.000000	18.127406	-1.556398E-5
553.000000	17.812240	-1.894750E-5
554.000000	17.618615	-1.943001E-5
555.000000	17.537454	-1.961830E-5
556.000000	17.301076	-1.702433E-5
557.000000	17.238915	-1.330507E-5
558.000000	17.547892	-1.277626E-5
559.000000	17.612127	-1.416862E-5
560.000000	17.794560	-1.716601E-5
561.000000	17.275631	-1.993484E-5
562.000000	17.249811	-1.793318E-5
563.000000	17.208216	-1.765996E-5
564.000000	17.184131	-1.503269E-5
565.000000	16.957963	-1.151407E-5
566.000000	17.147202	-1.155934E-5
567.000000	17.143937	-1.230064E-5
568.000000	17.205764	-1.487823E-5
569.000000	17.018884	-1.702786E-5
570.000000	17.106863	-1.620159E-5
571.000000	17.088786	-1.510116E-5
572.000000	16.810839	-1.346440E-5
573.000000	16.868797	-1.101927E-5
574.000000	16.937895	-1.117545E-5
575.000000	16.827245	-1.294396E-5
576.000000	17.093599	-1.686983E-5
577.000000	16.877197	-1.858890E-5
578.000000	16.695882	-1.934282E-5
579.000000	16.709020	-1.802811E-5
580.000000	16.702216	-1.477017E-5
581.000000	16.639552	-1.321973E-5
582.000000	16.632680	-1.257275E-5
583.000000	16.581961	-1.389068E-5
584.000000	16.895041	-1.698690E-5
585.000000	16.495662	-1.764246E-5
586.000000	16.638802	-1.702782E-5
587.000000	16.544782	-1.597657E-5
588.000000	16.613476	-1.345387E-5
589.000000	16.557413	-1.280832E-5
590.000000	16.464864	-1.320738E-5
591.000000	16.574373	-1.906807E-5
592.000000	16.552605	-1.919645E-5
593.000000	16.692321	-1.927715E-5
594.000000	16.673506	-1.844141E-5
595.000000	16.695792	-1.802527E-5
596.000000	16.827663	-1.834235E-5
597.000000	16.627784	-1.872124E-5
598.000000	16.407026	-2.016148E-5
599.000000	16.496264	-2.163534E-5
600.000000	16.415475	-2.242674E-5
601.000000	16.437017	-2.328521E-5
602.000000	16.302106	-2.293283E-5
603.000000	16.368489	-2.248450E-5
604.000000	16.373973	-2.112379E-5
605.000000	16.404198	-2.016978E-5
606.000000	16.445217	-2.044526E-5
607.000000	16.556321	-2.088079E-5
608.000000	16.525918	-2.280988E-5
609.000000	16.646484	-2.481481E-5
610.000000	16.614449	-2.594885E-5
611.000000	16.718660	-2.696962E-5
612.000000	16.685366	-2.652765E-5
613.000000	16.654242	-2.539758E-5
614.000000	16.581373	-2.356272E-5
615.000000	16.700038	-2.246616E-5
616.000000	16.880159	-2.277771E-5
617.000000	16.974808	-2.408259E-5
618.000000	17.075914	-2.652570E-5
619.000000	17.243152	-2.854448E-5
620.000000	17.331658	-2.949763E-5
621.000000	17.520294	-3.058185E-5
622.000000	17.468217	-3.104435E-5
623.000000	17.458763	-3.179535E-5
624.000000	17.576381	-3.280633E-5
625.000000	17.393165	-3.442963E-5
626.000000	17.426677	-3.247593E-5
627.000000	17.069186	-3.200633E-5
628.000000	17.102158	-3.200848E-5
629.000000	17.385254	-3.234844E-5
630.000000	17.360279	-3.282345E-5
631.000000	17.461485	-3.442289E-5
632.000000	17.577658	-3.624793E-5
633.000000	17.607348	-3.752234E-5
634.000000	17.704313	-3.866476E-5
635.000000	17.564650	-3.826353E-5
636.000000	17.693273	-3.790260E-5
637.000000	17.698113	-3.796444E-5
638.000000	17.661278	-3.786971E-5
639.000000	17.723839	-3.826738E-5
640.000000	17.848075	-3.787419E-5
641.000000	17.770265	-3.699533E-5
642.000000	17.695943	-3.691444E-5
643.000000	17.694920	-3.707572E-5
644.000000	17.769688	-3.908886E-5
645.000000	17.740078	-4.086733E-5
646.000000	17.806403	-4.230944E-5
647.000000	17.788786	-4.225547E-5
648.000000	17.777401	-4.038484E-5
649.000000	17.733893	-3.888605E-5
650.000000	17.694041	-3.776648E-5
651.000000	17.663304	-3.844609E-5
652.000000	17.633869	-4.057169E-5
653.000000	17.586702	-4.181566E-5
654.000000	17.515449	-4.276570E-5
655.000000	17.487735	-4.112189E-5
656.000000	17.395589	-3.900456E-5
657.000000	17.333475	-3.820242E-5
658.000000	17.323547	-3.744484E-5
659.000000	17.368369	-3.949733E-5
660.000000	17.279294	-4.278247E-5
661.000000	17.298463	-4.440468E-5
662.000000	17.200139	-4.495659E-5
663.000000	17.337213	-4.281168E-5
664.000000	17.157202	-3.803998E-5
665.000000	17.121217	-3.611275E-5
666.000000	17.092662	-3.719683E-5
667.000000	17.142763	-4.012489E-5
668.000000	17.070906	-4.318372E-5
669.000000	17.004109	-4.535172E-5
670.000000	17.042635	-4.421163E-5
671.000000	16.919618	-4.036470E-5
672.000000	16.870241	-3.922133E-5
673.000000	17.080264	-3.877337E-5
674.000000	16.955646	-3.885315E-5
675.000000	17.010516	-4.258215E-5
676.000000	16.985928	-4.415696E-5
677.000000	17.098073	-4.395869E-5
678.000000	17.100990	-4.390855E-5
679.000000	17.066533	-4.079193E-5
680.000000	17.129646	-3.873076E-5
681.000000	17.296444	-4.084763E-5
682.000000	17.289113	-4.370684E-5
683.000000	17.187157	-4.502920E-5
684.000000	17.308098	-4.612625E-5
685.000000	17.389111	-4.544802E-5
686.000000	17.413193	-4.103194E-5
687.000000	17.592064	-4.010012E-5
688.000000	17.756958	-4.352649E-5
689.000000	17.767871	-4.508750E-5
690.000000	17.837373	-4.760805E-5
691.000000	17.998449	-4.904282E-5
692.000000	18.073766	-4.669456E-5
693.000000	18.287254	-4.404991E-5
694.000000	18.354209	-4.201453E-5
695.000000	18.210547	-4.184135E-5
696.000000	18.440922	-4.456656E-5
697.000000	18.520793	-4.825619E-5
698.000000	18.607956	-5.054286E-5
699.000000	18.651718	-4.913443E-5
700.000000	18.859951	-4.754166E-5
701.000000	18.680307	-4.624556E-5
702.000000	18.851937	-4.426722E-5
703.000000	18.872539	-4.589070E-5
704.000000	18.980093	-5.087622E-5
705.000000	18.975235	-5.162373E-5
706.000000	19.024764	-4.964852E-5
707.000000	19.083748	-4.957924E-5
708.000000	19.209968	-4.862045E-5
709.000000	19.126954	-4.396281E-5
710.000000	18.962560	-4.438481E-5
711.000000	18.999597	-5.218800E-5
712.000000	18.903491	-5.519458E-5
713.000000	19.011702	-5.214468E-5
714.000000	19.026855	-4.777342E-5
715.000000	19.041695	-4.406775E-5
716.000000	18.980173	-4.425850E-5
717.000000	18.726611	-4.516731E-5
718.000000	18.634722	-4.753977E-5
719.000000	18.437263	-4.988140E-5
720.000000	18.303989	-4.934684E-5
721.000000	18.263468	-4.867257E-5
722.000000	17.997235	-4.576652E-5
723.000000	17.850341	-4.257612E-5
724.000000	17.620062	-4.241303E-5
725.000000	17.430825	-4.406051E-5
726.000000	17.229689	-4.519416E-5
727.000000	16.916014	-4.571403E-5
728.000000	16.906738	-4.463592E-5
729.000000	16.521459	-4.182206E-5
730.000000	16.190787	-3.916437E-5
731.000000	16.016694	-3.788985E-5
732.000000	15.588103	-3.768483E-5
733.000000	15.281543	-3.873641E-5
734.000000	14.836857	-3.952184E-5
735.000000	14.611115	-3.833473E-5
736.000000	14.256138	-3.648180E-5
737.000000	13.817462	-3.459739E-5
738.000000	13.413699	-3.238904E-5
739.000000	13.084580	-3.144339E-5
740.000000	12.656036	-3.104673E-5
741.000000	12.350006	-3.101526E-5
742.000000	11.904684	-3.060294E-5
743.000000	11.466741	-2.889679E-5
744.000000	11.135865	-2.676700E-5
745.000000	10.660636	-2.492410E-5
746.000000	10.229488	-2.342152E-5
747.000000	9.790685	-2.250403E-5
748.000000	9.389526	-2.233013E-5
749.000000	9.009893	-2.155254E-5
750.000000	8.588216	-2.050409E-5
751.000000	8.202897	-1.916401E-5
752.000000	7.806828	-1.734199E-5
753.000000	7.402086	-1.600710E-5
754.000000	7.039966	-1.493395E-5
755.000000	6.644381	-1.427787E-5
756.000000	6.310935	-1.384195E-5
757.000000	5.964918	-1.305963E-5
758.000000	5.632459	-1.214153E-5
759.000000	5.307331	-1.120879E-5
760.000000	5.013849	-1.017143E-5
761.000000	4.697840	-9.223704E-6
762.000000	4.381832	-8.584057E-6
763.000000	4.117660	-8.182582E-6
764.000000	3.877518	-7.834542E-6
765.000000	3.634689	-7.325373E-6
766.000000	3.409483	-6.722426E-6
767.000000	3.189070	-6.138314E-6
768.000000	2.977458	-5.559467E-6
769.000000	2.775496	-5.091180E-6
770.000000	2.569827	-4.740767E-6
771.000000	2.410076	-4.511062E-6
772.000000	2.250841	-4.259671E-6
773.000000	2.099804	-3.941721E-6
774.000000	1.958462	-3.576907E-6
775.000000	1.826887	-3.207861E-6
776.000000	1.697869	-2.890948E-6
777.000000	1.584698	-2.707373E-6
778.000000	1.477667	-2.598033E-6
779.000000	1.378279	-2.492141E-6
780.000000	1.285622	-2.346386E-6
781.000000	1.204940	-2.143814E-6
782.000000	1.127340	-1.928920E-6
783.000000	1.054996	-1.745094E-6
784.000000	0.980995	-1.613382E-6
785.000000	0.911960	-1.542675E-6
786.000000	0.858671	-1.473816E-6
787.000000	0.804125	-1.390499E-6
788.000000	0.757898	-1.292644E-6
789.000000	0.712953	-1.165430E-6
790.000000	0.666778	-1.055125E-6
791.000000	0.627066	-9.745942E-7
792.000000	0.587232	-9.307999E-7
793.000000	0.550102	-9.042099E-7
794.000000	0.517322	-8.867787E-7
795.000000	0.490249	-8.487286E-7
796.000000	0.463399	-7.689432E-7
797.000000	0.435501	-6.974875E-7
798.000000	0.410914	-6.526124E-7
799.000000	0.386788	-6.234972E-7
800.000000	0.366446	-6.154173E-7
801.000000	0.347158	-6.101698E-7
802.000000	0.328362	-5.840857E-7
803.000000	0.312315	-5.398558E-7
804.000000	0.296816	-4.869410E-7
805.000000	0.280821	-4.444456E-7
806.000000	0.266156	-4.188887E-7
807.000000	0.251977	-4.085227E-7
808.000000	0.239960	-4.098823E-7
809.000000	0.229759	-3.993384E-7
810.000000	0.219667	-3.712145E-7
811.000000	0.208725	-3.420539E-7
812.000000	0.199519	-3.090992E-7
813.000000	0.189252	-2.845529E-7
814.000000	0.180303	-2.789777E-7
815.000000	0.171285	-2.760918E-7
816.000000	0.164003	-2.768408E-7
817.000000	0.158041	-2.668446E-7
818.000000	0.151144	-2.407115E-7
819.000000	0.144165	-2.171747E-7
820.000000	0.138171	-2.018889E-7
821.000000	0.132231	-1.946955E-7
822.000000	0.125673	-1.952964E-7
823.000000	0.120257	-1.976047E-7
824.000000	0.116288	-1.936939E-7
825.000000	0.110230	-1.796586E-7
826.000000	0.107054	-1.658691E-7
827.000000	0.102535	-1.539502E-7
828.000000	0.098427	-1.492160E-7
829.000000	0.094608	-1.462093E-7
830.000000	0.090410	-1.453606E-7
831.000000	0.086477	-1.430322E-7
832.000000	0.083279	-1.361217E-7
833.000000	0.080174	-1.261041E-7
834.000000	0.076931	-1.151912E-7
835.000000	0.073789	-1.069890E-7
836.000000	0.070637	-1.041431E-7
837.000000	0.067708	-1.032713E-7
838.000000	0.065109	-1.017725E-7
839.000000	0.062173	-9.803195E-8
840.000000	0.060504	-9.394734E-8
841.000000	0.058357	-8.668005E-8
842.000000	0.055853	-8.090978E-8
843.000000	0.053146	-7.806942E-8
844.000000	0.051389	-7.713030E-8
845.000000	0.049279	-7.549273E-8
846.000000	0.047362	-7.296933E-8
847.000000	0.045893	-6.958598E-8
848.000000	0.044434	-6.463173E-8
849.000000	0.042495	-5.922913E-8
850.000000	0.040639	-5.668927E-8
851.000000	0.039138	-5.541317E-8
852.000000	0.037651	-5.385028E-8
853.000000	0.036063	-5.233269E-8
854.000000	0.035104	-5.011332E-8
855.000000	0.033886	-4.662276E-8
856.000000	0.032448	-4.325503E-8
857.000000	0.031377	-4.083567E-8
858.000000	0.029994	-3.930582E-8
859.000000	0.028661	-3.829918E-8
860.000000	0.027723	-3.671167E-8
861.000000	0.026845	-3.445788E-8
862.000000	0.026042	-3.196483E-8
863.000000	0.025134	-2.943816E-8
864.000000	0.024135	-2.775220E-8
865.000000	0.023285	-2.660653E-8
866.000000	0.022399	-2.521768E-8
867.000000	0.021455	-2.430291E-8
868.000000	0.020773	-2.297286E-8
869.000000	0.020180	-2.123616E-8
870.000000	0.019524	-1.991723E-8
871.000000	0.018771	-1.875798E-8
872.000000	0.018116	-1.785163E-8
873.000000	0.017343	-1.717815E-8
874.000000	0.016791	-1.646618E-8
875.000000	0.016217	-1.552869E-8
876.000000	0.015718	-1.458367E-8
877.000000	0.015240	-1.366016E-8
878.000000	0.014677	-1.295717E-8
879.000000	0.014166	-1.234760E-8
880.000000	0.013652	-1.176730E-8
881.000000	0.013190	-1.135237E-8
882.000000	0.012684	-1.074808E-8
883.000000	0.012267	-1.023287E-8
884.000000	0.011848	-9.760534E-9
885.000000	0.011503	-9.227914E-9
886.000000	0.011178	-8.779920E-9
887.000000	0.010833	-8.526524E-9
888.000000	0.010471	-8.236202E-9
889.000000	0.010112	-7.912826E-9
890.000000	0.009800	-7.576578E-9
891.000000	0.009528	-7.253483E-9
892.000000	0.009222	-6.903878E-9
893.000000	0.008926	-6.655913E-9
894.000000	0.008575	-6.501083E-9
895.000000	0.008326	-6.292624E-9
896.000000	0.008100	-6.045865E-9
897.000000	0.007828	-5.851069E-9
898.000000	0.007611	-5.637043E-9
899.000000	0.007351	-5.429008E-9
900.000000	0.007122	-5.248362E-9
901.000000	0.006872	-5.043548E-9
902.000000	0.006644	-4.905605E-9
903.000000	0.006461	-4.729588E-9
904.000000	0.006294	-4.580301E-9
905.000000	0.006129	-4.514783E-9
906.000000	0.005935	-4.339073E-9
907.000000	0.005722	-4.173474E-9
908.000000	0.005575	-4.077775E-9
909.000000	0.005434	-3.942275E-9
910.000000	0.005236	-3.819349E-9
911.000000	0.005097	-3.711030E-9
912.000000	0.004973	-3.629042E-9
913.000000	0.004801	-3.538686E-9
914.000000	0.004709	-3.448938E-9
915.000000	0.004598	-3.362755E-9
916.000000	0.004473	-3.237720E-9
917.000000	0.004367	-3.122020E-9
918.000000	0.004177	-3.030097E-9
919.000000	0.004138	-3.005775E-9
920.000000	0.004041	-2.890928E-9
921.000000	0.003916	-2.821130E-9
922.000000	0.003869	-2.768854E-9
923.000000	0.003772	-2.671850E-9
924.000000	0.003676	-2.612657E-9
925.000000	0.003556	-2.507694E-9
926.000000	0.003527	-2.505314E-9
927.000000	0.003420	-2.437123E-9
928.000000	0.003343	-2.362779E-9
929.000000	0.003251	-2.303469E-9
930.000000	0.003232	-2.234269E-9
931.000000	0.003191	-2.167862E-9
932.000000	0.003141	-2.132619E-9
933.000000	0.003142	-2.104229E-9
934.000000	0.003066	-2.061763E-9
935.000000	0.003022	-2.026246E-9
936.000000	0.002979	-1.973254E-9
937.000000	0.002933	-1.952149E-9
938.000000	0.002849	-1.866678E-9
939.000000	0.002838	-1.837360E-9
940.000000	0.002741	-1.796575E-9
941.000000	0.002763	-1.801420E-9
942.000000	0.002705	-1.768213E-9
943.000000	0.002634	-1.717244E-9
944.000000	0.002655	-1.688578E-9
945.000000	0.002597	-1.631938E-9
946.000000	0.002622	-1.624699E-9
947.000000	0.002589	-1.582564E-9
948.000000	0.002526	-1.557717E-9
949.000000	0.002521	-1.543029E-9
950.000000	0.002496	-1.521337E-9
951.000000	0.002528	-1.534746E-9
952.000000	0.002521	-1.503036E-9
953.000000	0.002446	-1.461861E-9
954.000000	0.002455	-1.465605E-9
955.000000	0.002409	-1.422842E-9
956.000000	0.002441	-1.450518E-9
957.000000	0.002360	-1.388951E-9
958.000000	0.002435	-1.408959E-9
959.000000	0.002409	-1.376485E-9
960.000000	0.002435	-1.355972E-9
961.000000	0.002459	-1.359463E-9
962.000000	0.002431	-1.339301E-9
963.000000	0.002435	-1.336069E-9
964.000000	0.002404	-1.330009E-9
965.000000	0.002414	-1.318542E-9
966.000000	0.002434	-1.311210E-9
967.000000	0.002364	-1.271949E-9
968.000000	0.002360	-1.255818E-9
969.000000	0.002368	-1.259209E-9
970.000000	0.002377	-1.261010E-9
971.000000	0.002382	-1.241576E-9
972.000000	0.002423	-1.248058E-9
973.000000	0.002481	-1.254222E-9
974.000000	0.002516	-1.244280E-9
975.000000	0.002435	-1.190459E-9
976.000000	0.002535	-1.225387E-9
977.000000	0.002489	-1.201740E-9
978.000000	0.002508	-1.216141E-9
979.000000	0.002491	-1.200022E-9
980.000000	0.002451	-1.177016E-9
981.000000	0.002421	-1.152643E-9
982.000000	0.002451	-1.161889E-9
983.000000	0.002462	-1.175580E-9
984.000000	0.002413	-1.143997E-9
985.000000	0.002499	-1.174182E-9
986.000000	0.002463	-1.143346E-9
987.000000	0.002551	-1.158609E-9
988.000000	0.002593	-1.158485E-9
989.000000	0.002578	-1.137985E-9
990.000000	0.002528	-1.103782E-9
991.000000	0.002588	-1.133879E-9
992.000000	0.002515	-1.108245E-9
993.000000	0.002486	-1.103934E-9
994.000000	0.002432	-1.094607E-9
995.000000	0.002525	-1.137433E-9
996.000000	0.002502	-1.130312E-9
997.000000	0.002475	-1.116065E-9
998.000000	0.002465	-1.110256E-9
999.000000	0.002494	-1.127081E-9
1000.000000	0.002469	-1.109008E-9
1001.000000	0.002365	-1.056115E-9
1002.000000	0.002454	-1.090594E-9
1003.000000	0.002485	-1.093738E-9
1004.000000	0.002504	-1.091075E-9
1005.000000	0.002459	-1.073002E-9
1006.000000	0.002526	-1.108051E-9
1007.000000	0.002454	-1.090424E-9
1008.000000	0.002474	-1.108403E-9
1009.000000	0.002381	-1.065137E-9
1010.000000	0.002413	-1.085943E-9
1011.000000	0.002413	-1.081192E-9
1012.000000	0.002350	-1.058432E-9
1013.000000	0.002316	-1.060983E-9
1014.000000	0.002332	-1.073031E-9
1015.000000	0.002385	-1.095556E-9
1016.000000	0.002364	-1.092423E-9
1017.000000	0.002322	-1.086165E-9
1018.000000	0.002209	-1.057393E-9
1019.000000	0.002159	-1.070768E-9
1020.000000	0.002102	-1.078553E-9
1021.000000	0.002015	-1.061153E-9
1022.000000	0.001977	-1.039837E-9
1023.000000	0.002021	-1.066146E-9
1024.000000	0.001941	-1.051100E-9
1025.000000	0.001880	-1.057810E-9
1026.000000	0.001796	-1.059834E-9
1027.000000	0.001720	-1.065201E-9
1028.000000	0.001631	-1.064515E-9
1029.000000	0.001642	-1.129678E-9
1030.000000	0.001508	-1.077994E-9
1031.000000	0.001427	-1.045697E-9
1032.000000	0.001474	-1.097393E-9
1033.000000	0.001479	-1.094478E-9
1034.000000	0.001502	-1.075203E-9
1035.000000	0.001575	-1.070715E-9
1036.000000	0.001661	-1.059037E-9
1037.000000	0.001745	-1.049100E-9
1038.000000	0.001856	-1.071407E-9
1039.000000	0.001899	-1.060561E-9
1040.000000	0.001949	-1.068556E-9
1041.000000	0.001937	-1.052748E-9
1042.000000	0.001977	-1.063676E-9
1043.000000	0.001962	-1.049293E-9
1044.000000	0.001924	-1.027895E-9
1045.000000	0.002015	-1.085754E-9
1046.000000	0.001945	-1.064808E-9
1047.000000	0.001882	-1.062080E-9
1048.000000	0.001748	-1.021089E-9
1049.000000	0.001756	-1.058855E-9
1050.000000	0.001659	-1.028440E-9
1051.000000	0.001650	-1.043903E-9
1052.000000	0.001639	-1.065975E-9
1053.000000	0.001536	-1.040241E-9
1054.000000	0.001539	-1.079425E-9
1055.000000	0.001445	-1.055476E-9
1056.000000	0.001333	-1.034177E-9
1057.000000	0.001325	-1.088154E-9
1058.000000	0.001201	-1.043157E-9
1059.000000	0.001084	-1.025160E-9
1060.000000	0.001018	-1.095639E-9
1061.000000	0.000849	-1.076523E-9
1062.000000	0.000678	-1.063307E-9
1063.000000	0.000426	-1.051587E-9
1064.000000	0.000242	-1.122928E-9
1065.000000	0.000216	-1.137545E-9
1066.000000	0.000314	-1.118679E-9
1067.000000	0.000517	-1.069565E-9
1068.000000	0.000688	-1.059088E-9
1069.000000	0.000869	-1.035820E-9
1070.000000	0.001068	-1.028921E-9
1071.000000	0.001245	-1.064943E-9
1072.000000	0.001346	-1.044219E-9
1073.000000	0.001461	-1.064093E-9
1074.000000	0.001522	-1.030605E-9
1075.000000	0.001643	-1.057277E-9
1076.000000	0.001701	-1.048272E-9
1077.000000	0.001754	-1.048754E-9
1078.000000	0.001742	-1.012297E-9
1079.000000	0.001827	-1.033701E-9
1080.000000	0.001872	-1.040412E-9
1081.000000	0.001908	-1.033426E-9
1082.000000	0.001965	-1.045416E-9
1083.000000	0.001951	-1.025442E-9
1084.000000	0.002036	-1.050970E-9
1085.000000	0.002033	-1.040113E-9
1086.000000	0.002106	-1.071302E-9
1087.000000	0.002107	-1.052255E-9
1088.000000	0.002120	-1.049135E-9
1089.000000	0.002093	-1.035280E-9
1090.000000	0.002085	-1.026205E-9
1091.000000	0.002126	-1.034623E-9
1092.000000	0.002160	-1.038979E-9
1093.000000	0.002187	-1.039866E-9
1094.000000	0.002127	-9.985065E-10
1095.000000	0.002330	-1.071565E-9
1096.000000	0.002270	-1.036939E-9
1097.000000	0.002219	-1.019905E-9
1098.000000	0.002275	-1.040071E-9
1099.000000	0.002203	-1.031303E-9
1100.000000	0.002103	-1.009575E-9
