Wavelength (nm)	EQE (%)	Current (A)	Dark Current (A) -> 	-38.527694000E-12	
400.000000	31.279410	-6.770419E-7
401.000000	33.463085	-1.002430E-6
402.000000	33.154375	-1.508891E-6
403.000000	33.509781	-2.267240E-6
404.000000	33.630950	-3.055708E-6
405.000000	33.686856	-4.089158E-6
406.000000	33.931025	-5.650552E-6
407.000000	33.885466	-6.133330E-6
408.000000	33.889718	-6.671108E-6
409.000000	33.709552	-7.418156E-6
410.000000	34.267083	-7.563485E-6
411.000000	34.678216	-1.016211E-5
412.000000	34.083589	-1.162191E-5
413.000000	34.257930	-1.516579E-5
414.000000	33.948981	-1.750314E-5
415.000000	34.036707	-1.750573E-5
416.000000	33.901149	-1.664109E-5
417.000000	33.650110	-1.477962E-5
418.000000	33.301404	-9.950423E-6
419.000000	33.490418	-7.294816E-6
420.000000	34.077033	-7.566384E-6
421.000000	33.796355	-8.180905E-6
422.000000	33.448409	-7.334292E-6
423.000000	33.753823	-7.695830E-6
424.000000	33.923882	-8.629811E-6
425.000000	33.777794	-9.277596E-6
426.000000	33.548444	-9.794087E-6
427.000000	33.949823	-1.031389E-5
428.000000	34.003108	-1.135721E-5
429.000000	33.905933	-1.263593E-5
430.000000	33.716506	-1.363467E-5
431.000000	33.737691	-1.389146E-5
432.000000	33.690240	-1.371276E-5
433.000000	33.820172	-1.399276E-5
434.000000	33.577142	-1.556484E-5
435.000000	33.554939	-1.588144E-5
436.000000	33.686561	-1.605377E-5
437.000000	34.195785	-1.756900E-5
438.000000	34.070313	-1.823035E-5
439.000000	33.644046	-1.769971E-5
440.000000	34.382410	-1.793229E-5
441.000000	34.594568	-1.980876E-5
442.000000	34.465268	-1.926862E-5
443.000000	34.688552	-1.855800E-5
444.000000	35.034326	-1.849116E-5
445.000000	34.869661	-1.829766E-5
446.000000	35.492810	-1.811126E-5
447.000000	35.997218	-2.053516E-5
448.000000	35.919147	-2.312382E-5
449.000000	35.759899	-2.145367E-5
450.000000	36.276506	-2.014664E-5
451.000000	36.806927	-2.239327E-5
452.000000	36.833926	-2.363617E-5
453.000000	37.336869	-2.219597E-5
454.000000	37.353054	-1.945949E-5
455.000000	37.784091	-2.068660E-5
456.000000	38.239770	-2.454831E-5
457.000000	38.490926	-2.732576E-5
458.000000	38.731909	-2.803577E-5
459.000000	38.503676	-2.636258E-5
460.000000	38.612205	-2.464686E-5
461.000000	39.409714	-2.362347E-5
462.000000	39.788085	-2.328677E-5
463.000000	39.752075	-2.337549E-5
464.000000	39.702570	-2.328822E-5
465.000000	40.268255	-2.386813E-5
466.000000	39.368401	-2.187174E-5
467.000000	40.050381	-1.804612E-5
468.000000	41.451295	-1.814694E-5
469.000000	42.119315	-2.388443E-5
470.000000	40.915684	-2.465551E-5
471.000000	40.124417	-1.847359E-5
472.000000	41.893746	-1.787213E-5
473.000000	42.580498	-2.498387E-5
474.000000	41.621636	-2.542627E-5
475.000000	41.379138	-1.957605E-5
476.000000	42.524350	-1.869325E-5
477.000000	42.334914	-2.197643E-5
478.000000	42.555053	-2.074731E-5
479.000000	43.377720	-2.044956E-5
480.000000	43.715202	-2.455428E-5
481.000000	43.212797	-2.400253E-5
482.000000	42.848807	-1.732330E-5
483.000000	44.790460	-1.842683E-5
484.000000	43.458430	-2.277304E-5
485.000000	43.218088	-1.916946E-5
486.000000	44.260106	-1.737271E-5
487.000000	44.484768	-2.077833E-5
488.000000	43.738634	-2.037015E-5
489.000000	44.596046	-1.760364E-5
490.000000	45.231381	-1.984731E-5
491.000000	44.791663	-2.179855E-5
492.000000	45.314524	-2.432804E-5
493.000000	44.431033	-2.539263E-5
494.000000	44.553765	-2.320215E-5
495.000000	45.349167	-2.290124E-5
496.000000	44.782107	-2.592874E-5
497.000000	44.493210	-2.762368E-5
498.000000	44.972528	-2.565727E-5
499.000000	44.907951	-2.476252E-5
500.000000	45.668614	-2.799913E-5
501.000000	45.308027	-3.332351E-5
502.000000	44.451448	-3.133275E-5
503.000000	45.045842	-2.940967E-5
504.000000	44.203768	-3.486463E-5
505.000000	44.981361	-3.940710E-5
506.000000	44.324032	-3.600250E-5
507.000000	44.829931	-2.922437E-5
508.000000	45.747338	-2.917466E-5
509.000000	44.683416	-2.919066E-5
510.000000	43.965749	-2.512438E-5
511.000000	45.704049	-2.319750E-5
512.000000	45.735548	-2.586408E-5
513.000000	46.868683	-3.026527E-5
514.000000	45.317851	-3.618340E-5
515.000000	46.364916	-4.236340E-5
516.000000	46.587075	-5.421650E-5
517.000000	45.580023	-6.363321E-5
518.000000	44.719999	-5.386497E-5
519.000000	45.364068	-4.449485E-5
520.000000	45.794498	-4.261225E-5
521.000000	45.162787	-3.228304E-5
522.000000	45.003741	-2.538190E-5
523.000000	46.076229	-2.375274E-5
524.000000	47.334555	-3.201496E-5
525.000000	47.543115	-4.502988E-5
526.000000	46.397009	-4.897903E-5
527.000000	46.939768	-5.359253E-5
528.000000	46.079677	-5.974336E-5
529.000000	46.010283	-5.712526E-5
530.000000	45.148918	-4.229132E-5
531.000000	45.099761	-3.176222E-5
532.000000	45.843618	-2.565944E-5
533.000000	46.333017	-2.739238E-5
534.000000	46.558381	-2.987612E-5
535.000000	47.990646	-3.863522E-5
536.000000	47.699086	-5.547611E-5
537.000000	45.750834	-5.363870E-5
538.000000	46.153833	-4.052865E-5
539.000000	46.981266	-4.057998E-5
540.000000	46.260476	-3.315371E-5
541.000000	46.584930	-2.908252E-5
542.000000	47.305801	-3.074790E-5
543.000000	47.770499	-3.631288E-5
544.000000	47.549135	-4.951590E-5
545.000000	47.463099	-5.346994E-5
546.000000	46.965788	-4.729610E-5
547.000000	48.161576	-4.839155E-5
548.000000	47.023844	-3.806396E-5
549.000000	47.293423	-2.788747E-5
550.000000	47.783781	-2.786357E-5
551.000000	48.441322	-3.117337E-5
552.000000	49.124995	-4.217815E-5
553.000000	48.335224	-5.141586E-5
554.000000	48.487173	-5.347221E-5
555.000000	48.155889	-5.386966E-5
556.000000	47.449313	-4.669032E-5
557.000000	47.150328	-3.639083E-5
558.000000	48.139085	-3.504908E-5
559.000000	48.875789	-3.931964E-5
560.000000	49.839676	-4.807921E-5
561.000000	48.136248	-5.554578E-5
562.000000	48.604973	-5.053051E-5
563.000000	48.719716	-4.999869E-5
564.000000	48.422927	-4.236041E-5
565.000000	48.284317	-3.278395E-5
566.000000	48.825558	-3.291448E-5
567.000000	49.163967	-3.527476E-5
568.000000	49.269350	-4.260437E-5
569.000000	48.767169	-4.879289E-5
570.000000	48.827107	-4.624324E-5
571.000000	48.938535	-4.324641E-5
572.000000	48.611533	-3.893471E-5
573.000000	48.646189	-3.177734E-5
574.000000	49.317102	-3.253892E-5
575.000000	49.415886	-3.801200E-5
576.000000	49.459605	-4.881214E-5
577.000000	48.974432	-5.394147E-5
578.000000	48.645442	-5.635761E-5
579.000000	48.228658	-5.203606E-5
580.000000	49.056444	-4.338179E-5
581.000000	48.770691	-3.874716E-5
582.000000	48.325888	-3.652985E-5
583.000000	49.274639	-4.127728E-5
584.000000	49.070940	-4.933774E-5
585.000000	48.575839	-5.195289E-5
586.000000	48.381523	-4.951269E-5
587.000000	48.552004	-4.688454E-5
588.000000	48.749218	-3.947793E-5
589.000000	48.900259	-3.782778E-5
590.000000	48.564193	-3.895603E-5
591.000000	49.287760	-5.670335E-5
592.000000	49.433055	-5.732869E-5
593.000000	49.566672	-5.724214E-5
594.000000	49.446347	-5.468918E-5
595.000000	49.527183	-5.347101E-5
596.000000	49.396506	-5.384277E-5
597.000000	49.322485	-5.553224E-5
598.000000	48.847324	-6.002516E-5
599.000000	49.099566	-6.439554E-5
600.000000	49.265068	-6.730569E-5
601.000000	49.144361	-6.961949E-5
602.000000	48.739151	-6.856333E-5
603.000000	48.695687	-6.689061E-5
604.000000	48.574636	-6.266533E-5
605.000000	48.840376	-6.005168E-5
606.000000	48.810876	-6.068336E-5
607.000000	49.118612	-6.194827E-5
608.000000	48.881250	-6.746829E-5
609.000000	49.267216	-7.344233E-5
610.000000	49.360565	-7.709253E-5
611.000000	49.299752	-7.952764E-5
612.000000	49.199030	-7.822032E-5
613.000000	49.294091	-7.517308E-5
614.000000	49.213140	-6.993362E-5
615.000000	49.177790	-6.615770E-5
616.000000	49.591105	-6.691713E-5
617.000000	49.721324	-7.054090E-5
618.000000	49.932531	-7.756512E-5
619.000000	50.163041	-8.304038E-5
620.000000	50.225476	-8.548129E-5
621.000000	50.338226	-8.786588E-5
622.000000	50.675101	-9.005931E-5
623.000000	50.801345	-9.251781E-5
624.000000	50.989899	-9.517269E-5
625.000000	50.232941	-9.943570E-5
626.000000	50.383864	-9.389414E-5
627.000000	49.221801	-9.229551E-5
628.000000	49.253744	-9.218354E-5
629.000000	49.731962	-9.253540E-5
630.000000	49.693425	-9.395642E-5
631.000000	50.035884	-9.863879E-5
632.000000	50.069411	-0.000103
633.000000	50.160496	-0.000107
634.000000	50.233445	-0.000110
635.000000	49.940747	-0.000109
636.000000	50.194007	-0.000108
637.000000	50.099754	-0.000107
638.000000	49.880645	-0.000107
639.000000	50.110906	-0.000108
640.000000	50.065311	-0.000106
641.000000	50.094743	-0.000104
642.000000	49.819041	-0.000104
643.000000	49.931110	-0.000105
644.000000	50.011926	-0.000110
645.000000	50.061761	-0.000115
646.000000	49.960227	-0.000119
647.000000	49.901925	-0.000119
648.000000	49.811299	-0.000113
649.000000	49.777285	-0.000109
650.000000	49.861040	-0.000106
651.000000	49.708444	-0.000108
652.000000	49.588139	-0.000114
653.000000	49.717577	-0.000118
654.000000	49.491299	-0.000121
655.000000	49.585828	-0.000117
656.000000	49.297930	-0.000111
657.000000	49.091872	-0.000108
658.000000	49.108406	-0.000106
659.000000	49.260684	-0.000112
660.000000	48.981870	-0.000121
661.000000	49.030752	-0.000126
662.000000	48.815486	-0.000128
663.000000	48.975036	-0.000121
664.000000	48.776408	-0.000108
665.000000	48.403461	-0.000102
666.000000	48.476670	-0.000105
667.000000	48.676311	-0.000114
668.000000	48.550447	-0.000123
669.000000	48.365164	-0.000129
670.000000	48.186591	-0.000125
671.000000	47.993052	-0.000114
672.000000	47.759186	-0.000111
673.000000	48.364970	-0.000110
674.000000	48.094183	-0.000110
675.000000	48.045370	-0.000120
676.000000	47.975894	-0.000125
677.000000	48.163586	-0.000124
678.000000	48.224205	-0.000124
679.000000	48.021336	-0.000115
680.000000	48.076395	-0.000109
681.000000	48.775627	-0.000115
682.000000	48.471836	-0.000123
683.000000	48.350586	-0.000127
684.000000	48.326652	-0.000129
685.000000	48.506943	-0.000127
686.000000	48.437494	-0.000114
687.000000	48.925489	-0.000112
688.000000	49.314148	-0.000121
689.000000	49.230254	-0.000125
690.000000	49.475579	-0.000132
691.000000	49.474319	-0.000135
692.000000	49.547590	-0.000128
693.000000	50.088539	-0.000121
694.000000	50.129677	-0.000115
695.000000	49.944817	-0.000115
696.000000	50.171040	-0.000121
697.000000	50.419682	-0.000131
698.000000	50.492008	-0.000137
699.000000	50.484013	-0.000133
700.000000	50.646284	-0.000128
701.000000	50.529526	-0.000125
702.000000	50.843038	-0.000119
703.000000	50.964701	-0.000124
704.000000	50.963881	-0.000137
705.000000	50.866129	-0.000138
706.000000	50.609909	-0.000132
707.000000	51.381259	-0.000133
708.000000	51.621905	-0.000131
709.000000	51.238339	-0.000118
710.000000	50.922028	-0.000119
711.000000	51.330695	-0.000141
712.000000	50.843569	-0.000148
713.000000	50.902272	-0.000140
714.000000	51.025760	-0.000128
715.000000	51.164496	-0.000118
716.000000	51.234568	-0.000119
717.000000	50.903512	-0.000123
718.000000	50.552436	-0.000129
719.000000	50.125733	-0.000136
720.000000	49.887481	-0.000134
721.000000	49.947254	-0.000133
722.000000	49.712914	-0.000126
723.000000	49.293317	-0.000118
724.000000	48.792329	-0.000117
725.000000	48.493646	-0.000123
726.000000	48.400751	-0.000127
727.000000	47.716308	-0.000129
728.000000	47.576174	-0.000126
729.000000	47.055831	-0.000119
730.000000	46.187211	-0.000112
731.000000	46.043210	-0.000109
732.000000	45.139849	-0.000109
733.000000	44.843177	-0.000114
734.000000	43.652415	-0.000116
735.000000	43.422932	-0.000114
736.000000	42.830547	-0.000110
737.000000	41.972268	-0.000105
738.000000	41.013775	-9.903285E-5
739.000000	40.511154	-9.735185E-5
740.000000	39.396054	-9.664311E-5
741.000000	38.864386	-9.760230E-5
742.000000	37.703621	-9.692333E-5
743.000000	36.794432	-9.272390E-5
744.000000	35.691624	-8.579106E-5
745.000000	34.942574	-8.169421E-5
746.000000	33.897769	-7.761261E-5
747.000000	32.853560	-7.551438E-5
748.000000	32.006833	-7.611851E-5
749.000000	30.886178	-7.388274E-5
750.000000	29.873976	-7.132316E-5
751.000000	28.765739	-6.720393E-5
752.000000	27.766440	-6.168002E-5
753.000000	26.525234	-5.736114E-5
754.000000	25.611527	-5.432999E-5
755.000000	24.319927	-5.226021E-5
756.000000	23.330557	-5.117156E-5
757.000000	22.340346	-4.891210E-5
758.000000	21.236863	-4.577894E-5
759.000000	20.249631	-4.276610E-5
760.000000	19.365966	-3.928710E-5
761.000000	18.253004	-3.583781E-5
762.000000	17.257705	-3.380803E-5
763.000000	16.363897	-3.251821E-5
764.000000	15.525178	-3.136869E-5
765.000000	14.671172	-2.956836E-5
766.000000	13.913226	-2.743250E-5
767.000000	13.070476	-2.515802E-5
768.000000	12.323770	-2.301077E-5
769.000000	11.592816	-2.126507E-5
770.000000	10.852749	-2.002094E-5
771.000000	10.195947	-1.908427E-5
772.000000	9.569459	-1.811001E-5
773.000000	8.989734	-1.687540E-5
774.000000	8.390721	-1.532469E-5
775.000000	7.898629	-1.386933E-5
776.000000	7.415065	-1.262557E-5
777.000000	6.942532	-1.186095E-5
778.000000	6.499029	-1.142659E-5
779.000000	6.119554	-1.106510E-5
780.000000	5.738547	-1.047341E-5
781.000000	5.403423	-9.613703E-6
782.000000	5.073174	-8.680386E-6
783.000000	4.760243	-7.874035E-6
784.000000	4.462322	-7.338908E-6
785.000000	4.182358	-7.074896E-6
786.000000	3.945851	-6.772630E-6
787.000000	3.715660	-6.425150E-6
788.000000	3.511999	-5.989938E-6
789.000000	3.309403	-5.409725E-6
790.000000	3.114928	-4.929132E-6
791.000000	2.948771	-4.583020E-6
792.000000	2.770919	-4.392080E-6
793.000000	2.612885	-4.294831E-6
794.000000	2.460156	-4.217126E-6
795.000000	2.343817	-4.057663E-6
796.000000	2.233312	-3.705857E-6
797.000000	2.112009	-3.382537E-6
798.000000	1.999127	-3.175003E-6
799.000000	1.886861	-3.041596E-6
800.000000	1.791584	-3.008827E-6
801.000000	1.707400	-3.000949E-6
802.000000	1.622148	-2.885454E-6
803.000000	1.551932	-2.682607E-6
804.000000	1.473339	-2.417088E-6
805.000000	1.404657	-2.223102E-6
806.000000	1.334401	-2.100143E-6
807.000000	1.272207	-2.062593E-6
808.000000	1.218062	-2.080603E-6
809.000000	1.170221	-2.033935E-6
810.000000	1.121723	-1.895596E-6
811.000000	1.071862	-1.756547E-6
812.000000	1.027583	-1.591951E-6
813.000000	0.980969	-1.474956E-6
814.000000	0.937332	-1.450309E-6
815.000000	0.894994	-1.442627E-6
816.000000	0.859098	-1.450177E-6
817.000000	0.828115	-1.398233E-6
818.000000	0.793831	-1.264252E-6
819.000000	0.760682	-1.145912E-6
820.000000	0.730118	-1.066811E-6
821.000000	0.700818	-1.031877E-6
822.000000	0.669847	-1.040941E-6
823.000000	0.642113	-1.055113E-6
824.000000	0.620854	-1.034117E-6
825.000000	0.597311	-9.735281E-7
826.000000	0.574337	-8.898735E-7
827.000000	0.552155	-8.290289E-7
828.000000	0.531650	-8.059872E-7
829.000000	0.512254	-7.916457E-7
830.000000	0.490656	-7.888746E-7
831.000000	0.472358	-7.812795E-7
832.000000	0.454761	-7.433151E-7
833.000000	0.438772	-6.901400E-7
834.000000	0.421732	-6.314741E-7
835.000000	0.405643	-5.881566E-7
836.000000	0.389061	-5.736046E-7
837.000000	0.374484	-5.711820E-7
838.000000	0.360159	-5.629684E-7
839.000000	0.347063	-5.472352E-7
840.000000	0.334899	-5.200101E-7
841.000000	0.323150	-4.799856E-7
842.000000	0.309489	-4.483312E-7
843.000000	0.298303	-4.381966E-7
844.000000	0.287822	-4.319973E-7
845.000000	0.277106	-4.245116E-7
846.000000	0.266417	-4.104591E-7
847.000000	0.258310	-3.916689E-7
848.000000	0.248692	-3.617391E-7
849.000000	0.238496	-3.324140E-7
850.000000	0.229787	-3.205376E-7
851.000000	0.221093	-3.130341E-7
852.000000	0.212985	-3.046188E-7
853.000000	0.204951	-2.974157E-7
854.000000	0.197339	-2.817144E-7
855.000000	0.190657	-2.623216E-7
856.000000	0.183440	-2.445380E-7
857.000000	0.176992	-2.303462E-7
858.000000	0.169577	-2.222231E-7
859.000000	0.163282	-2.181894E-7
860.000000	0.157194	-2.081624E-7
861.000000	0.151576	-1.945598E-7
862.000000	0.146531	-1.798549E-7
863.000000	0.141058	-1.652165E-7
864.000000	0.135950	-1.563241E-7
865.000000	0.131342	-1.500767E-7
866.000000	0.126183	-1.420629E-7
867.000000	0.120995	-1.370535E-7
868.000000	0.116687	-1.290444E-7
869.000000	0.112381	-1.182619E-7
870.000000	0.108916	-1.111073E-7
871.000000	0.104291	-1.042160E-7
872.000000	0.100417	-9.895398E-8
873.000000	0.096706	-9.578712E-8
874.000000	0.093003	-9.120441E-8
875.000000	0.089414	-8.562173E-8
876.000000	0.086283	-8.005879E-8
877.000000	0.083081	-7.447004E-8
878.000000	0.080010	-7.063685E-8
879.000000	0.076809	-6.695058E-8
880.000000	0.074101	-6.387165E-8
881.000000	0.071133	-6.122249E-8
882.000000	0.068130	-5.772930E-8
883.000000	0.065655	-5.476970E-8
884.000000	0.063060	-5.195090E-8
885.000000	0.060765	-4.874464E-8
886.000000	0.058511	-4.595712E-8
887.000000	0.056257	-4.427906E-8
888.000000	0.054059	-4.252093E-8
889.000000	0.051838	-4.056528E-8
890.000000	0.049942	-3.861022E-8
891.000000	0.048214	-3.670400E-8
892.000000	0.046148	-3.454856E-8
893.000000	0.044364	-3.308129E-8
894.000000	0.042503	-3.222489E-8
895.000000	0.041036	-3.101635E-8
896.000000	0.039344	-2.936631E-8
897.000000	0.037692	-2.817363E-8
898.000000	0.036344	-2.691920E-8
899.000000	0.034826	-2.572143E-8
900.000000	0.033549	-2.472293E-8
901.000000	0.032174	-2.361276E-8
902.000000	0.030961	-2.285979E-8
903.000000	0.029779	-2.179823E-8
904.000000	0.028582	-2.080139E-8
905.000000	0.027377	-2.016482E-8
906.000000	0.026304	-1.923026E-8
907.000000	0.025267	-1.843030E-8
908.000000	0.024226	-1.771831E-8
909.000000	0.023317	-1.691560E-8
910.000000	0.022358	-1.630779E-8
911.000000	0.021501	-1.565320E-8
912.000000	0.020584	-1.502271E-8
913.000000	0.019759	-1.456227E-8
914.000000	0.018986	-1.390472E-8
915.000000	0.018224	-1.332757E-8
916.000000	0.017510	-1.267344E-8
917.000000	0.016800	-1.200948E-8
918.000000	0.016102	-1.168011E-8
919.000000	0.015464	-1.123355E-8
920.000000	0.014819	-1.060105E-8
921.000000	0.014205	-1.023270E-8
922.000000	0.013666	-9.780943E-9
923.000000	0.013111	-9.287839E-9
924.000000	0.012600	-8.955454E-9
925.000000	0.012094	-8.527888E-9
926.000000	0.011564	-8.213621E-9
927.000000	0.011111	-7.917770E-9
928.000000	0.010649	-7.526874E-9
929.000000	0.010196	-7.223876E-9
930.000000	0.009830	-6.794802E-9
931.000000	0.009408	-6.392062E-9
932.000000	0.009021	-6.125752E-9
933.000000	0.008676	-5.810620E-9
934.000000	0.008316	-5.591340E-9
935.000000	0.007990	-5.356592E-9
936.000000	0.007653	-5.069535E-9
937.000000	0.007343	-4.887564E-9
938.000000	0.007066	-4.629091E-9
939.000000	0.006787	-4.394351E-9
940.000000	0.006510	-4.266709E-9
941.000000	0.006247	-4.072989E-9
942.000000	0.005991	-3.915811E-9
943.000000	0.005748	-3.747576E-9
944.000000	0.005526	-3.515092E-9
945.000000	0.005300	-3.330210E-9
946.000000	0.005091	-3.154235E-9
947.000000	0.004890	-2.989144E-9
948.000000	0.004683	-2.887853E-9
949.000000	0.004513	-2.762066E-9
950.000000	0.004339	-2.644990E-9
951.000000	0.004166	-2.529139E-9
952.000000	0.004015	-2.393731E-9
953.000000	0.003847	-2.299326E-9
954.000000	0.003705	-2.211825E-9
955.000000	0.003565	-2.105752E-9
956.000000	0.003425	-2.035181E-9
957.000000	0.003296	-1.939620E-9
958.000000	0.003160	-1.828362E-9
959.000000	0.003053	-1.744774E-9
960.000000	0.002940	-1.637035E-9
961.000000	0.002831	-1.564638E-9
962.000000	0.002728	-1.503416E-9
963.000000	0.002599	-1.426331E-9
964.000000	0.002518	-1.393307E-9
965.000000	0.002433	-1.328830E-9
966.000000	0.002348	-1.264992E-9
967.000000	0.002267	-1.219507E-9
968.000000	0.002181	-1.160561E-9
969.000000	0.002108	-1.121002E-9
970.000000	0.002027	-1.075396E-9
971.000000	0.001965	-1.024369E-9
972.000000	0.001901	-9.791833E-10
973.000000	0.001842	-9.314765E-10
974.000000	0.001779	-8.798395E-10
975.000000	0.001722	-8.418224E-10
976.000000	0.001666	-8.054480E-10
977.000000	0.001615	-7.799377E-10
978.000000	0.001547	-7.502797E-10
979.000000	0.001508	-7.263648E-10
980.000000	0.001458	-7.001680E-10
981.000000	0.001417	-6.747629E-10
982.000000	0.001389	-6.583149E-10
983.000000	0.001324	-6.319888E-10
984.000000	0.001289	-6.112824E-10
985.000000	0.001245	-5.851032E-10
986.000000	0.001209	-5.610472E-10
987.000000	0.001180	-5.360761E-10
988.000000	0.001150	-5.136624E-10
989.000000	0.001123	-4.956252E-10
990.000000	0.001095	-4.782917E-10
991.000000	0.001028	-4.502645E-10
992.000000	0.001029	-4.533616E-10
993.000000	0.000997	-4.425275E-10
994.000000	0.000966	-4.350598E-10
995.000000	0.000944	-4.252876E-10
996.000000	0.000914	-4.128050E-10
997.000000	0.000886	-3.993602E-10
998.000000	0.000868	-3.908313E-10
999.000000	0.000841	-3.801555E-10
1000.000000	0.000812	-3.645112E-10
1001.000000	0.000796	-3.554071E-10
1002.000000	0.000783	-3.478054E-10
1003.000000	0.000769	-3.381913E-10
1004.000000	0.000750	-3.267058E-10
1005.000000	0.000727	-3.172442E-10
1006.000000	0.000710	-3.115309E-10
1007.000000	0.000694	-3.085804E-10
1008.000000	0.000674	-3.019342E-10
1009.000000	0.000653	-2.921619E-10
1010.000000	0.000637	-2.868298E-10
1011.000000	0.000629	-2.817852E-10
1012.000000	0.000620	-2.793800E-10
1013.000000	0.000590	-2.703935E-10
1014.000000	0.000578	-2.659532E-10
1015.000000	0.000566	-2.599464E-10
1016.000000	0.000548	-2.531828E-10
1017.000000	0.000535	-2.501388E-10
1018.000000	0.000516	-2.471000E-10
1019.000000	0.000496	-2.460854E-10
1020.000000	0.000479	-2.459739E-10
1021.000000	0.000461	-2.426889E-10
1022.000000	0.000450	-2.368466E-10
1023.000000	0.000438	-2.310629E-10
1024.000000	0.000423	-2.290685E-10
1025.000000	0.000408	-2.296200E-10
1026.000000	0.000389	-2.296141E-10
1027.000000	0.000370	-2.289509E-10
1028.000000	0.000352	-2.297781E-10
1029.000000	0.000335	-2.303940E-10
1030.000000	0.000326	-2.331981E-10
1031.000000	0.000311	-2.281301E-10
1032.000000	0.000306	-2.280244E-10
1033.000000	0.000298	-2.208210E-10
1034.000000	0.000304	-2.174011E-10
1035.000000	0.000302	-2.055991E-10
1036.000000	0.000307	-1.955274E-10
1037.000000	0.000312	-1.876320E-10
1038.000000	0.000312	-1.800299E-10
1039.000000	0.000312	-1.743576E-10
1040.000000	0.000309	-1.694362E-10
1041.000000	0.000303	-1.647141E-10
1042.000000	0.000301	-1.617226E-10
1043.000000	0.000290	-1.549241E-10
1044.000000	0.000296	-1.579742E-10
1045.000000	0.000281	-1.514925E-10
1046.000000	0.000277	-1.517271E-10
1047.000000	0.000268	-1.515218E-10
1048.000000	0.000261	-1.524838E-10
1049.000000	0.000244	-1.473570E-10
1050.000000	0.000236	-1.460664E-10
1051.000000	0.000231	-1.461135E-10
1052.000000	0.000220	-1.432038E-10
1053.000000	0.000212	-1.436615E-10
1054.000000	0.000207	-1.451046E-10
1055.000000	0.000193	-1.410630E-10
1056.000000	0.000185	-1.435208E-10
1057.000000	0.000175	-1.438257E-10
1058.000000	0.000164	-1.424355E-10
1059.000000	0.000153	-1.449462E-10
1060.000000	0.000141	-1.522316E-10
1061.000000	0.000128	-1.623854E-10
1062.000000	0.000112	-1.749910E-10
1063.000000	9.000902E-5	-2.223461E-10
1064.000000	6.783724E-5	-3.148804E-10
1065.000000	6.699036E-5	-3.522984E-10
1066.000000	7.342481E-5	-2.614597E-10
1067.000000	8.691547E-5	-1.798951E-10
1068.000000	9.657261E-5	-1.485711E-10
1069.000000	0.000113	-1.351735E-10
1070.000000	0.000130	-1.251547E-10
1071.000000	0.000142	-1.210897E-10
1072.000000	0.000143	-1.105310E-10
1073.000000	0.000147	-1.072697E-10
1074.000000	0.000152	-1.031987E-10
1075.000000	0.000155	-9.998430E-11
1076.000000	0.000160	-9.833603E-11
1077.000000	0.000163	-9.720974E-11
1078.000000	0.000163	-9.492793E-11
1079.000000	0.000169	-9.567290E-11
1080.000000	0.000166	-9.232937E-11
1081.000000	0.000168	-9.102130E-11
1082.000000	0.000168	-8.943747E-11
1083.000000	0.000163	-8.581237E-11
1084.000000	0.000166	-8.583002E-11
1085.000000	0.000170	-8.670988E-11
1086.000000	0.000166	-8.426966E-11
1087.000000	0.000169	-8.461574E-11
1088.000000	0.000165	-8.182952E-11
1089.000000	0.000171	-8.478007E-11
1090.000000	0.000163	-8.019285E-11
1091.000000	0.000168	-8.186465E-11
1092.000000	0.000167	-8.046848E-11
1093.000000	0.000164	-7.803420E-11
1094.000000	0.000170	-7.992895E-11
1095.000000	0.000169	-7.791699E-11
1096.000000	0.000169	-7.717200E-11
1097.000000	0.000170	-7.815745E-11
1098.000000	0.000169	-7.730695E-11
1099.000000	0.000158	-7.385777E-11
1100.000000	0.000157	-7.556476E-11
