Wavelength (nm)	EQE (%)	Current (A)	Dark Current (A) -> 	-133.261482000E-12	
400.000000	24.061109	-5.208020E-7
401.000000	25.538470	-7.650379E-7
402.000000	25.012970	-1.138367E-6
403.000000	25.302290	-1.711929E-6
404.000000	25.443134	-2.311763E-6
405.000000	25.326191	-3.074279E-6
406.000000	25.475057	-4.242375E-6
407.000000	25.125917	-4.547836E-6
408.000000	25.290058	-4.978286E-6
409.000000	25.021127	-5.506173E-6
410.000000	25.361193	-5.597763E-6
411.000000	25.518973	-7.478084E-6
412.000000	25.171066	-8.582895E-6
413.000000	25.347515	-1.122120E-5
414.000000	24.914276	-1.284510E-5
415.000000	25.109001	-1.291404E-5
416.000000	24.916670	-1.223087E-5
417.000000	24.874309	-1.092516E-5
418.000000	24.344045	-7.273974E-6
419.000000	24.758142	-5.392769E-6
420.000000	25.104221	-5.574082E-6
421.000000	24.960263	-6.041999E-6
422.000000	24.818060	-5.441900E-6
423.000000	25.067693	-5.715403E-6
424.000000	25.255905	-6.424786E-6
425.000000	24.826751	-6.819053E-6
426.000000	24.979873	-7.292590E-6
427.000000	25.176396	-7.648540E-6
428.000000	25.336401	-8.462486E-6
429.000000	25.477595	-9.494890E-6
430.000000	25.322983	-1.024040E-5
431.000000	25.422067	-1.046751E-5
432.000000	25.289767	-1.029356E-5
433.000000	25.422919	-1.051848E-5
434.000000	25.363288	-1.175727E-5
435.000000	25.572968	-1.210360E-5
436.000000	25.765804	-1.227903E-5
437.000000	26.419957	-1.357396E-5
438.000000	25.582576	-1.368873E-5
439.000000	25.957624	-1.365598E-5
440.000000	26.159238	-1.364346E-5
441.000000	26.662537	-1.526690E-5
442.000000	26.690280	-1.492183E-5
443.000000	26.514872	-1.418517E-5
444.000000	26.942132	-1.422009E-5
445.000000	26.975723	-1.415536E-5
446.000000	27.517498	-1.404162E-5
447.000000	27.693136	-1.579797E-5
448.000000	27.923859	-1.797666E-5
449.000000	27.993644	-1.679441E-5
450.000000	28.266416	-1.569813E-5
451.000000	28.653452	-1.743271E-5
452.000000	28.795661	-1.847805E-5
453.000000	28.750807	-1.709174E-5
454.000000	29.312532	-1.527069E-5
455.000000	29.398699	-1.609564E-5
456.000000	30.166947	-1.936590E-5
457.000000	30.238194	-2.146692E-5
458.000000	30.479373	-2.206224E-5
459.000000	30.317232	-2.075751E-5
460.000000	30.659239	-1.957034E-5
461.000000	31.114437	-1.865101E-5
462.000000	31.560343	-1.847132E-5
463.000000	31.702394	-1.864202E-5
464.000000	31.600342	-1.853572E-5
465.000000	32.291277	-1.913995E-5
466.000000	31.896793	-1.772077E-5
467.000000	31.931788	-1.438800E-5
468.000000	32.926306	-1.441479E-5
469.000000	33.562956	-1.903241E-5
470.000000	32.537510	-1.960688E-5
471.000000	32.140580	-1.479777E-5
472.000000	33.413957	-1.425460E-5
473.000000	34.167482	-2.004758E-5
474.000000	33.488151	-2.045760E-5
475.000000	33.193019	-1.570328E-5
476.000000	34.290278	-1.507364E-5
477.000000	34.350616	-1.783171E-5
478.000000	34.120758	-1.663525E-5
479.000000	34.353560	-1.619530E-5
480.000000	35.102708	-1.971675E-5
481.000000	34.522647	-1.917559E-5
482.000000	33.564804	-1.356988E-5
483.000000	35.230317	-1.449378E-5
484.000000	34.744298	-1.820667E-5
485.000000	34.252776	-1.519288E-5
486.000000	35.043517	-1.375507E-5
487.000000	35.325714	-1.650024E-5
488.000000	35.144882	-1.636783E-5
489.000000	34.781929	-1.372966E-5
490.000000	35.566051	-1.560621E-5
491.000000	35.388445	-1.722233E-5
492.000000	35.333853	-1.896971E-5
493.000000	35.415722	-2.024032E-5
494.000000	34.759028	-1.810137E-5
495.000000	35.315662	-1.783434E-5
496.000000	35.310516	-2.044471E-5
497.000000	35.342054	-2.194217E-5
498.000000	34.627535	-1.975535E-5
499.000000	35.399170	-1.951932E-5
500.000000	35.805290	-2.195199E-5
501.000000	35.633878	-2.620829E-5
502.000000	34.607487	-2.439398E-5
503.000000	34.905666	-2.278932E-5
504.000000	34.279755	-2.703731E-5
505.000000	34.851535	-3.053260E-5
506.000000	34.042272	-2.765107E-5
507.000000	33.807743	-2.203907E-5
508.000000	34.769135	-2.217348E-5
509.000000	33.696075	-2.201288E-5
510.000000	33.549871	-1.917219E-5
511.000000	34.186156	-1.735149E-5
512.000000	34.872204	-1.972071E-5
513.000000	35.290696	-2.278883E-5
514.000000	34.447648	-2.750424E-5
515.000000	34.980539	-3.196155E-5
516.000000	35.104484	-4.085344E-5
517.000000	34.272944	-4.784766E-5
518.000000	33.849102	-4.077104E-5
519.000000	33.758606	-3.311176E-5
520.000000	33.376945	-3.105759E-5
521.000000	33.066092	-2.363614E-5
522.000000	32.775431	-1.848519E-5
523.000000	33.604396	-1.732339E-5
524.000000	34.783955	-2.352630E-5
525.000000	34.594767	-3.276601E-5
526.000000	33.660380	-3.553360E-5
527.000000	34.055949	-3.888269E-5
528.000000	33.555055	-4.350490E-5
529.000000	33.120512	-4.112163E-5
530.000000	32.575833	-3.051402E-5
531.000000	32.477694	-2.287293E-5
532.000000	33.009465	-1.847595E-5
533.000000	33.101345	-1.956973E-5
534.000000	33.121427	-2.125374E-5
535.000000	33.983308	-2.735851E-5
536.000000	33.590903	-3.906768E-5
537.000000	32.370651	-3.795165E-5
538.000000	32.377099	-2.843101E-5
539.000000	32.727956	-2.826871E-5
540.000000	31.916505	-2.287375E-5
541.000000	32.427029	-2.024388E-5
542.000000	32.638971	-2.121473E-5
543.000000	33.327101	-2.533369E-5
544.000000	32.869909	-3.422950E-5
545.000000	32.432903	-3.653755E-5
546.000000	32.082274	-3.230791E-5
547.000000	32.424501	-3.257933E-5
548.000000	31.836228	-2.577018E-5
549.000000	32.049144	-1.889839E-5
550.000000	32.314658	-1.884325E-5
551.000000	32.449893	-2.088243E-5
552.000000	32.899758	-2.824735E-5
553.000000	32.243657	-3.429870E-5
554.000000	32.091424	-3.539079E-5
555.000000	31.917830	-3.570493E-5
556.000000	31.207653	-3.070846E-5
557.000000	30.977655	-2.390869E-5
558.000000	31.887302	-2.321649E-5
559.000000	32.323923	-2.600398E-5
560.000000	32.125755	-3.099099E-5
561.000000	31.512330	-3.636297E-5
562.000000	31.466280	-3.271285E-5
563.000000	31.324071	-3.214638E-5
564.000000	31.269740	-2.735479E-5
565.000000	31.355545	-2.128970E-5
566.000000	31.129170	-2.098492E-5
567.000000	31.235311	-2.241109E-5
568.000000	31.666789	-2.738302E-5
569.000000	31.131341	-3.114776E-5
570.000000	30.783978	-2.915493E-5
571.000000	31.210327	-2.758020E-5
572.000000	30.812388	-2.467874E-5
573.000000	30.806867	-2.012409E-5
574.000000	31.384391	-2.070710E-5
575.000000	31.381622	-2.413957E-5
576.000000	31.255550	-3.084639E-5
577.000000	30.860714	-3.399064E-5
578.000000	30.799490	-3.568239E-5
579.000000	30.566374	-3.297943E-5
580.000000	30.601771	-2.706188E-5
581.000000	30.597085	-2.430866E-5
582.000000	30.514279	-2.306594E-5
583.000000	30.653698	-2.567855E-5
584.000000	30.779203	-3.094655E-5
585.000000	30.310442	-3.241766E-5
586.000000	30.190247	-3.089610E-5
587.000000	30.366482	-2.932358E-5
588.000000	30.149379	-2.441547E-5
589.000000	30.105609	-2.328880E-5
590.000000	29.894930	-2.398038E-5
591.000000	30.049998	-3.457117E-5
592.000000	30.050879	-3.485072E-5
593.000000	30.224010	-3.490424E-5
594.000000	30.100067	-3.329160E-5
595.000000	30.066406	-3.246058E-5
596.000000	30.138970	-3.285183E-5
597.000000	30.028135	-3.380871E-5
598.000000	29.626895	-3.640648E-5
599.000000	29.670666	-3.891396E-5
600.000000	29.744282	-4.063649E-5
601.000000	29.578261	-4.190152E-5
602.000000	29.505011	-4.150589E-5
603.000000	29.493360	-4.051342E-5
604.000000	29.470313	-3.801916E-5
605.000000	29.436828	-3.619405E-5
606.000000	29.393114	-3.654253E-5
607.000000	29.708956	-3.746886E-5
608.000000	29.336782	-4.049206E-5
609.000000	29.721330	-4.430540E-5
610.000000	29.653867	-4.631413E-5
611.000000	29.616584	-4.777584E-5
612.000000	29.879520	-4.750471E-5
613.000000	29.783041	-4.541889E-5
614.000000	29.687970	-4.218766E-5
615.000000	29.662940	-3.990484E-5
616.000000	29.836673	-4.026094E-5
617.000000	29.930036	-4.246250E-5
618.000000	30.000698	-4.660304E-5
619.000000	30.592888	-5.064376E-5
620.000000	30.406636	-5.175060E-5
621.000000	30.405852	-5.307372E-5
622.000000	30.474088	-5.415826E-5
623.000000	30.573793	-5.568003E-5
624.000000	30.602317	-5.711925E-5
625.000000	30.420215	-6.021657E-5
626.000000	30.375038	-5.660618E-5
627.000000	29.710850	-5.571064E-5
628.000000	29.700545	-5.558768E-5
629.000000	30.107805	-5.602107E-5
630.000000	30.234942	-5.716585E-5
631.000000	30.361750	-5.985397E-5
632.000000	30.500796	-6.289750E-5
633.000000	30.435434	-6.485978E-5
634.000000	30.491605	-6.659115E-5
635.000000	30.307308	-6.602264E-5
636.000000	30.572206	-6.549190E-5
637.000000	30.604095	-6.564922E-5
638.000000	30.525457	-6.545337E-5
639.000000	30.617095	-6.610509E-5
640.000000	30.690774	-6.512681E-5
641.000000	30.589147	-6.368254E-5
642.000000	30.544591	-6.371723E-5
643.000000	30.494515	-6.389439E-5
644.000000	30.565497	-6.723643E-5
645.000000	30.671535	-7.065717E-5
646.000000	30.501943	-7.247506E-5
647.000000	30.559283	-7.259050E-5
648.000000	30.350481	-6.894705E-5
649.000000	30.457742	-6.678631E-5
650.000000	30.343401	-6.476550E-5
651.000000	30.308185	-6.596904E-5
652.000000	30.192751	-6.946694E-5
653.000000	30.305130	-7.205609E-5
654.000000	30.197200	-7.372945E-5
655.000000	30.153696	-7.090552E-5
656.000000	30.034304	-6.734321E-5
657.000000	29.930039	-6.596484E-5
658.000000	29.739992	-6.428298E-5
659.000000	29.787931	-6.774060E-5
660.000000	29.739712	-7.363370E-5
661.000000	29.778673	-7.644104E-5
662.000000	29.623871	-7.742892E-5
663.000000	29.737608	-7.343262E-5
664.000000	29.498861	-6.540321E-5
665.000000	29.333817	-6.187205E-5
666.000000	29.319769	-6.380530E-5
667.000000	29.487441	-6.901923E-5
668.000000	29.377751	-7.431595E-5
669.000000	29.233938	-7.796994E-5
670.000000	29.210870	-7.577820E-5
671.000000	29.108007	-6.944223E-5
672.000000	29.085839	-6.762116E-5
673.000000	29.143952	-6.615877E-5
674.000000	29.166212	-6.683315E-5
675.000000	29.067902	-7.276521E-5
676.000000	29.090381	-7.562394E-5
677.000000	29.200228	-7.507301E-5
678.000000	29.106154	-7.473304E-5
679.000000	29.136762	-6.964184E-5
680.000000	29.236649	-6.610514E-5
681.000000	29.481554	-6.962423E-5
682.000000	29.467948	-7.449491E-5
683.000000	29.442985	-7.713865E-5
684.000000	29.541066	-7.872723E-5
685.000000	29.603123	-7.737045E-5
686.000000	29.647048	-6.985944E-5
687.000000	29.865655	-6.807708E-5
688.000000	30.043031	-7.364255E-5
689.000000	30.059435	-7.627840E-5
690.000000	30.197856	-8.059825E-5
691.000000	30.338656	-8.266786E-5
692.000000	30.340452	-7.838621E-5
693.000000	30.826005	-7.425296E-5
694.000000	30.895675	-7.072314E-5
695.000000	30.703071	-7.054472E-5
696.000000	31.075298	-7.510032E-5
697.000000	31.178540	-8.123613E-5
698.000000	31.259539	-8.490704E-5
699.000000	31.390961	-8.269356E-5
700.000000	31.545994	-7.952030E-5
701.000000	31.287436	-7.745617E-5
702.000000	31.648968	-7.431660E-5
703.000000	31.636391	-7.692744E-5
704.000000	31.802266	-8.524611E-5
705.000000	31.916127	-8.683052E-5
706.000000	31.955375	-8.339326E-5
707.000000	32.117871	-8.344166E-5
708.000000	32.338607	-8.184905E-5
709.000000	32.392867	-7.445417E-5
710.000000	32.116399	-7.517341E-5
711.000000	32.001983	-8.790289E-5
712.000000	32.087464	-9.368926E-5
713.000000	32.200684	-8.831899E-5
714.000000	32.136301	-8.068916E-5
715.000000	32.423703	-7.503742E-5
716.000000	32.423489	-7.560600E-5
717.000000	32.309864	-7.792919E-5
718.000000	32.139819	-8.199315E-5
719.000000	31.766900	-8.594429E-5
720.000000	31.671932	-8.538629E-5
721.000000	31.728224	-8.455646E-5
722.000000	31.313465	-7.962936E-5
723.000000	31.152364	-7.430372E-5
724.000000	30.900540	-7.438030E-5
725.000000	30.651497	-7.747887E-5
726.000000	30.423407	-7.980181E-5
727.000000	29.972323	-8.099755E-5
728.000000	29.906397	-7.895666E-5
729.000000	29.386301	-7.438784E-5
730.000000	28.950895	-7.003017E-5
731.000000	28.679870	-6.784646E-5
732.000000	28.245132	-6.828368E-5
733.000000	27.654945	-7.010112E-5
734.000000	26.977969	-7.186286E-5
735.000000	26.590748	-6.976532E-5
736.000000	26.180524	-6.699659E-5
737.000000	25.646501	-6.421599E-5
738.000000	24.927308	-6.019008E-5
739.000000	24.380448	-5.858835E-5
740.000000	23.649297	-5.801448E-5
741.000000	23.176461	-5.820434E-5
742.000000	22.474149	-5.777348E-5
743.000000	21.808335	-5.495815E-5
744.000000	21.160732	-5.086352E-5
745.000000	20.453201	-4.781869E-5
746.000000	19.695649	-4.509532E-5
747.000000	18.996266	-4.366319E-5
748.000000	18.385825	-4.372509E-5
749.000000	17.598453	-4.209721E-5
750.000000	16.935008	-4.043179E-5
751.000000	16.259362	-3.798592E-5
752.000000	15.576049	-3.460044E-5
753.000000	14.854932	-3.212397E-5
754.000000	14.117945	-2.994854E-5
755.000000	13.383654	-2.875965E-5
756.000000	12.766837	-2.800186E-5
757.000000	12.172385	-2.665030E-5
758.000000	11.522685	-2.483871E-5
759.000000	10.881308	-2.298072E-5
760.000000	10.287449	-2.086981E-5
761.000000	9.692581	-1.903034E-5
762.000000	9.096693	-1.782052E-5
763.000000	8.563354	-1.701703E-5
764.000000	8.079176	-1.632401E-5
765.000000	7.600297	-1.531768E-5
766.000000	7.150062	-1.409767E-5
767.000000	6.722452	-1.293936E-5
768.000000	6.265798	-1.169941E-5
769.000000	5.860603	-1.075029E-5
770.000000	5.457132	-1.006721E-5
771.000000	5.115746	-9.575401E-6
772.000000	4.788243	-9.061654E-6
773.000000	4.478905	-8.407736E-6
774.000000	4.185374	-7.644105E-6
775.000000	3.904881	-6.856643E-6
776.000000	3.625249	-6.172681E-6
777.000000	3.396262	-5.802334E-6
778.000000	3.170952	-5.575166E-6
779.000000	2.948431	-5.331219E-6
780.000000	2.756333	-5.030578E-6
781.000000	2.581096	-4.592254E-6
782.000000	2.416052	-4.133953E-6
783.000000	2.265433	-3.747308E-6
784.000000	2.110522	-3.471047E-6
785.000000	1.981783	-3.352394E-6
786.000000	1.865790	-3.202428E-6
787.000000	1.745919	-3.019057E-6
788.000000	1.647293	-2.809564E-6
789.000000	1.548238	-2.530831E-6
790.000000	1.445789	-2.287849E-6
791.000000	1.370440	-2.129956E-6
792.000000	1.279599	-2.028245E-6
793.000000	1.203652	-1.978457E-6
794.000000	1.127756	-1.933165E-6
795.000000	1.074990	-1.861044E-6
796.000000	1.019354	-1.691470E-6
797.000000	0.958321	-1.534822E-6
798.000000	0.906158	-1.439156E-6
799.000000	0.852081	-1.373544E-6
800.000000	0.807306	-1.355809E-6
801.000000	0.766094	-1.346498E-6
802.000000	0.731854	-1.301811E-6
803.000000	0.696334	-1.203654E-6
804.000000	0.661663	-1.085491E-6
805.000000	0.625964	-9.906921E-7
806.000000	0.593838	-9.346104E-7
807.000000	0.565432	-9.167192E-7
808.000000	0.540007	-9.223988E-7
809.000000	0.516936	-8.984754E-7
810.000000	0.490872	-8.295235E-7
811.000000	0.470155	-7.704805E-7
812.000000	0.448202	-6.943635E-7
813.000000	0.425785	-6.401980E-7
814.000000	0.406017	-6.282193E-7
815.000000	0.387303	-6.242876E-7
816.000000	0.370959	-6.261879E-7
817.000000	0.356520	-6.019679E-7
818.000000	0.340605	-5.424453E-7
819.000000	0.325108	-4.897522E-7
820.000000	0.312314	-4.563364E-7
821.000000	0.298820	-4.399796E-7
822.000000	0.285227	-4.432429E-7
823.000000	0.272738	-4.481605E-7
824.000000	0.263301	-4.385639E-7
825.000000	0.252016	-4.107496E-7
826.000000	0.241988	-3.749347E-7
827.000000	0.231891	-3.481712E-7
828.000000	0.222860	-3.378582E-7
829.000000	0.214078	-3.308399E-7
830.000000	0.204499	-3.287921E-7
831.000000	0.195828	-3.238995E-7
832.000000	0.188605	-3.082789E-7
833.000000	0.181343	-2.852327E-7
834.000000	0.174416	-2.611585E-7
835.000000	0.166891	-2.419806E-7
836.000000	0.159740	-2.355103E-7
837.000000	0.153633	-2.343291E-7
838.000000	0.147316	-2.302706E-7
839.000000	0.141701	-2.234277E-7
840.000000	0.136724	-2.122965E-7
841.000000	0.131411	-1.951894E-7
842.000000	0.125695	-1.820836E-7
843.000000	0.120349	-1.767883E-7
844.000000	0.116290	-1.745421E-7
845.000000	0.111127	-1.702412E-7
846.000000	0.107130	-1.650519E-7
847.000000	0.103478	-1.569012E-7
848.000000	0.099300	-1.444382E-7
849.000000	0.095351	-1.328991E-7
850.000000	0.091502	-1.276392E-7
851.000000	0.088209	-1.248909E-7
852.000000	0.084530	-1.208976E-7
853.000000	0.081261	-1.179216E-7
854.000000	0.078380	-1.118923E-7
855.000000	0.075304	-1.036090E-7
856.000000	0.072278	-9.635141E-8
857.000000	0.069759	-9.078815E-8
858.000000	0.066894	-8.766106E-8
859.000000	0.063906	-8.539578E-8
860.000000	0.061633	-8.161738E-8
861.000000	0.059336	-7.616173E-8
862.000000	0.057065	-7.004231E-8
863.000000	0.054947	-6.435722E-8
864.000000	0.052608	-6.049162E-8
865.000000	0.050875	-5.813184E-8
866.000000	0.048809	-5.495102E-8
867.000000	0.046682	-5.287713E-8
868.000000	0.045128	-4.990783E-8
869.000000	0.043250	-4.551383E-8
870.000000	0.041727	-4.256658E-8
871.000000	0.040021	-3.999201E-8
872.000000	0.038421	-3.786099E-8
873.000000	0.036901	-3.654974E-8
874.000000	0.035440	-3.475498E-8
875.000000	0.034000	-3.255742E-8
876.000000	0.032760	-3.039714E-8
877.000000	0.031536	-2.826763E-8
878.000000	0.030289	-2.674031E-8
879.000000	0.029070	-2.533837E-8
880.000000	0.027935	-2.407884E-8
881.000000	0.026835	-2.309679E-8
882.000000	0.025762	-2.182939E-8
883.000000	0.024643	-2.055746E-8
884.000000	0.023721	-1.954231E-8
885.000000	0.022720	-1.822596E-8
886.000000	0.021823	-1.714058E-8
887.000000	0.021011	-1.653731E-8
888.000000	0.020227	-1.590986E-8
889.000000	0.019436	-1.520910E-8
890.000000	0.018694	-1.445242E-8
891.000000	0.018025	-1.372183E-8
892.000000	0.017282	-1.293831E-8
893.000000	0.016554	-1.234393E-8
894.000000	0.015872	-1.203354E-8
895.000000	0.015249	-1.152575E-8
896.000000	0.014635	-1.092328E-8
897.000000	0.014027	-1.048473E-8
898.000000	0.013482	-9.985939E-9
899.000000	0.012946	-9.561129E-9
900.000000	0.012447	-9.172685E-9
901.000000	0.011930	-8.755633E-9
902.000000	0.011425	-8.435513E-9
903.000000	0.011010	-8.059263E-9
904.000000	0.010564	-7.687931E-9
905.000000	0.010126	-7.458383E-9
906.000000	0.009738	-7.119124E-9
907.000000	0.009365	-6.831176E-9
908.000000	0.008940	-6.538384E-9
909.000000	0.008590	-6.232097E-9
910.000000	0.008245	-6.014061E-9
911.000000	0.007921	-5.766405E-9
912.000000	0.007592	-5.540589E-9
913.000000	0.007290	-5.373028E-9
914.000000	0.006995	-5.122767E-9
915.000000	0.006711	-4.907577E-9
916.000000	0.006476	-4.686803E-9
917.000000	0.006205	-4.435410E-9
918.000000	0.005969	-4.329608E-9
919.000000	0.005720	-4.155525E-9
920.000000	0.005500	-3.934547E-9
921.000000	0.005269	-3.795487E-9
922.000000	0.005057	-3.619814E-9
923.000000	0.004856	-3.440273E-9
924.000000	0.004672	-3.320427E-9
925.000000	0.004482	-3.160031E-9
926.000000	0.004300	-3.053852E-9
927.000000	0.004119	-2.935326E-9
928.000000	0.003963	-2.801260E-9
929.000000	0.003811	-2.700210E-9
930.000000	0.003665	-2.533421E-9
931.000000	0.003516	-2.388705E-9
932.000000	0.003387	-2.299854E-9
933.000000	0.003256	-2.180572E-9
934.000000	0.003114	-2.093534E-9
935.000000	0.003014	-2.020381E-9
936.000000	0.002889	-1.913699E-9
937.000000	0.002776	-1.847724E-9
938.000000	0.002683	-1.757467E-9
939.000000	0.002585	-1.673643E-9
940.000000	0.002475	-1.622329E-9
941.000000	0.002387	-1.556543E-9
942.000000	0.002301	-1.503597E-9
943.000000	0.002209	-1.440241E-9
944.000000	0.002123	-1.350593E-9
945.000000	0.002050	-1.288197E-9
946.000000	0.001977	-1.224791E-9
947.000000	0.001910	-1.167472E-9
948.000000	0.001839	-1.134107E-9
949.000000	0.001776	-1.086717E-9
950.000000	0.001707	-1.040412E-9
951.000000	0.001660	-1.007720E-9
952.000000	0.001600	-9.538599E-10
953.000000	0.001542	-9.216682E-10
954.000000	0.001491	-8.899110E-10
955.000000	0.001435	-8.474419E-10
956.000000	0.001397	-8.300614E-10
957.000000	0.001347	-7.927188E-10
958.000000	0.001307	-7.559169E-10
959.000000	0.001270	-7.258067E-10
960.000000	0.001244	-6.927823E-10
961.000000	0.001197	-6.619109E-10
962.000000	0.001164	-6.414567E-10
963.000000	0.001121	-6.152827E-10
964.000000	0.001090	-6.032456E-10
965.000000	0.001051	-5.740636E-10
966.000000	0.001042	-5.613112E-10
967.000000	0.001008	-5.423588E-10
968.000000	0.000977	-5.199980E-10
969.000000	0.000952	-5.061488E-10
970.000000	0.000935	-4.958775E-10
971.000000	0.000904	-4.710939E-10
972.000000	0.000881	-4.536196E-10
973.000000	0.000854	-4.318571E-10
974.000000	0.000844	-4.174038E-10
975.000000	0.000825	-4.036543E-10
976.000000	0.000822	-3.972429E-10
977.000000	0.000792	-3.822558E-10
978.000000	0.000770	-3.734387E-10
979.000000	0.000760	-3.658428E-10
980.000000	0.000746	-3.582642E-10
981.000000	0.000714	-3.401388E-10
982.000000	0.000697	-3.305655E-10
983.000000	0.000699	-3.335513E-10
984.000000	0.000676	-3.205233E-10
985.000000	0.000678	-3.183528E-10
986.000000	0.000660	-3.062925E-10
987.000000	0.000655	-2.976171E-10
988.000000	0.000650	-2.902320E-10
989.000000	0.000645	-2.845773E-10
990.000000	0.000637	-2.782419E-10
991.000000	0.000627	-2.745113E-10
992.000000	0.000610	-2.686866E-10
993.000000	0.000588	-2.611019E-10
994.000000	0.000578	-2.600110E-10
995.000000	0.000567	-2.552536E-10
996.000000	0.000554	-2.500918E-10
997.000000	0.000550	-2.479507E-10
998.000000	0.000552	-2.488015E-10
999.000000	0.000527	-2.383014E-10
1000.000000	0.000523	-2.348582E-10
1001.000000	0.000509	-2.274788E-10
1002.000000	0.000517	-2.299131E-10
1003.000000	0.000516	-2.270445E-10
1004.000000	0.000510	-2.223287E-10
1005.000000	0.000503	-2.194896E-10
1006.000000	0.000500	-2.192022E-10
1007.000000	0.000484	-2.150080E-10
1008.000000	0.000476	-2.130606E-10
1009.000000	0.000473	-2.115238E-10
1010.000000	0.000449	-2.018392E-10
1011.000000	0.000455	-2.038688E-10
1012.000000	0.000444	-1.999915E-10
1013.000000	0.000443	-2.028775E-10
1014.000000	0.000427	-1.964542E-10
1015.000000	0.000431	-1.980203E-10
1016.000000	0.000423	-1.956329E-10
1017.000000	0.000413	-1.932222E-10
1018.000000	0.000409	-1.955567E-10
1019.000000	0.000379	-1.880897E-10
1020.000000	0.000362	-1.855848E-10
1021.000000	0.000352	-1.852974E-10
1022.000000	0.000352	-1.848869E-10
1023.000000	0.000344	-1.815843E-10
1024.000000	0.000335	-1.813731E-10
1025.000000	0.000315	-1.771437E-10
1026.000000	0.000307	-1.813789E-10
1027.000000	0.000295	-1.828631E-10
1028.000000	0.000277	-1.808979E-10
1029.000000	0.000268	-1.844586E-10
1030.000000	0.000254	-1.817427E-10
1031.000000	0.000248	-1.813789E-10
1032.000000	0.000243	-1.807280E-10
1033.000000	0.000242	-1.787454E-10
1034.000000	0.000245	-1.756657E-10
1035.000000	0.000251	-1.705507E-10
1036.000000	0.000263	-1.677527E-10
1037.000000	0.000276	-1.659987E-10
1038.000000	0.000283	-1.630775E-10
1039.000000	0.000284	-1.583434E-10
1040.000000	0.000288	-1.577279E-10
1041.000000	0.000282	-1.530938E-10
1042.000000	0.000288	-1.550353E-10
1043.000000	0.000279	-1.490171E-10
1044.000000	0.000278	-1.485713E-10
1045.000000	0.000274	-1.474333E-10
1046.000000	0.000266	-1.455679E-10
1047.000000	0.000266	-1.499204E-10
1048.000000	0.000253	-1.478087E-10
1049.000000	0.000241	-1.451985E-10
1050.000000	0.000247	-1.529296E-10
1051.000000	0.000229	-1.450987E-10
1052.000000	0.000222	-1.445884E-10
1053.000000	0.000219	-1.482193E-10
1054.000000	0.000206	-1.445884E-10
1055.000000	0.000196	-1.431746E-10
1056.000000	0.000185	-1.437495E-10
1057.000000	0.000173	-1.422068E-10
1058.000000	0.000159	-1.383998E-10
1059.000000	0.000151	-1.426819E-10
1060.000000	0.000134	-1.446998E-10
1061.000000	0.000119	-1.513693E-10
1062.000000	0.000102	-1.591122E-10
1063.000000	7.413967E-5	-1.831446E-10
1064.000000	4.750249E-5	-2.204925E-10
1065.000000	4.518194E-5	-2.376092E-10
1066.000000	5.490602E-5	-1.955158E-10
1067.000000	7.741557E-5	-1.602325E-10
1068.000000	9.591305E-5	-1.475564E-10
1069.000000	0.000115	-1.371797E-10
1070.000000	0.000139	-1.336427E-10
1071.000000	0.000147	-1.260345E-10
1072.000000	0.000166	-1.288679E-10
1073.000000	0.000183	-1.333904E-10
1074.000000	0.000186	-1.260638E-10
1075.000000	0.000191	-1.232189E-10
1076.000000	0.000209	-1.289558E-10
1077.000000	0.000196	-1.170012E-10
1078.000000	0.000209	-1.213185E-10
1079.000000	0.000213	-1.204913E-10
1080.000000	0.000211	-1.175526E-10
1081.000000	0.000214	-1.160685E-10
1082.000000	0.000233	-1.241459E-10
1083.000000	0.000227	-1.192067E-10
1084.000000	0.000235	-1.211776E-10
1085.000000	0.000224	-1.146196E-10
1086.000000	0.000230	-1.169131E-10
1087.000000	0.000238	-1.186320E-10
1088.000000	0.000237	-1.172300E-10
1089.000000	0.000226	-1.119682E-10
1090.000000	0.000225	-1.109652E-10
1091.000000	0.000234	-1.137515E-10
1092.000000	0.000225	-1.080674E-10
1093.000000	0.000229	-1.090646E-10
1094.000000	0.000244	-1.147193E-10
1095.000000	0.000234	-1.078563E-10
1096.000000	0.000241	-1.102553E-10
1097.000000	0.000245	-1.126662E-10
1098.000000	0.000241	-1.102143E-10
1099.000000	0.000236	-1.105605E-10
1100.000000	0.000230	-1.104314E-10
