Wavelength (nm)	EQE (%)	Current (A)	Dark Current (A) -> 	1.918736000E-12	
400.000000	28.783694	-6.230222E-7
401.000000	31.062752	-9.305249E-7
402.000000	30.471621	-1.386796E-6
403.000000	30.743573	-2.080081E-6
404.000000	30.812812	-2.799652E-6
405.000000	30.987637	-3.761507E-6
406.000000	30.957168	-5.155314E-6
407.000000	30.766138	-5.568726E-6
408.000000	30.673813	-6.038065E-6
409.000000	30.545124	-6.721789E-6
410.000000	31.027123	-6.848356E-6
411.000000	31.287575	-9.168516E-6
412.000000	30.811251	-1.050610E-5
413.000000	30.894209	-1.367669E-5
414.000000	30.633265	-1.579365E-5
415.000000	30.648480	-1.576310E-5
416.000000	30.417586	-1.493111E-5
417.000000	30.226499	-1.327592E-5
418.000000	29.775156	-8.896784E-6
419.000000	30.058324	-6.547244E-6
420.000000	30.344959	-6.737723E-6
421.000000	30.191331	-7.308256E-6
422.000000	29.955967	-6.568498E-6
423.000000	30.338748	-6.917197E-6
424.000000	30.417224	-7.737761E-6
425.000000	30.075553	-8.260718E-6
426.000000	30.388852	-8.871680E-6
427.000000	30.295445	-9.203697E-6
428.000000	30.683218	-1.024835E-5
429.000000	30.490098	-1.136293E-5
430.000000	30.267646	-1.223998E-5
431.000000	30.099795	-1.239356E-5
432.000000	30.393511	-1.237091E-5
433.000000	30.516576	-1.262593E-5
434.000000	30.301347	-1.404633E-5
435.000000	30.648644	-1.450590E-5
436.000000	30.577340	-1.457203E-5
437.000000	31.116043	-1.598670E-5
438.000000	30.678672	-1.641555E-5
439.000000	30.880171	-1.624567E-5
440.000000	31.127542	-1.623470E-5
441.000000	31.281105	-1.791148E-5
442.000000	30.863899	-1.725519E-5
443.000000	31.444636	-1.682254E-5
444.000000	32.030998	-1.690600E-5
445.000000	31.716430	-1.664302E-5
446.000000	32.245787	-1.645437E-5
447.000000	32.604759	-1.859988E-5
448.000000	32.739818	-2.107705E-5
449.000000	32.853458	-1.970999E-5
450.000000	32.911448	-1.827781E-5
451.000000	33.632510	-2.046196E-5
452.000000	33.515983	-2.150706E-5
453.000000	34.125147	-2.028667E-5
454.000000	33.894831	-1.765789E-5
455.000000	34.063509	-1.864960E-5
456.000000	34.891340	-2.239876E-5
457.000000	35.233368	-2.501313E-5
458.000000	35.477289	-2.567994E-5
459.000000	34.993247	-2.395907E-5
460.000000	35.017256	-2.235214E-5
461.000000	35.728233	-2.141667E-5
462.000000	35.947977	-2.103927E-5
463.000000	36.128616	-2.124478E-5
464.000000	35.481416	-2.081223E-5
465.000000	36.406890	-2.157939E-5
466.000000	36.480246	-2.026718E-5
467.000000	36.986612	-1.666563E-5
468.000000	37.638777	-1.647786E-5
469.000000	38.045398	-2.157425E-5
470.000000	37.733039	-2.273767E-5
471.000000	37.714575	-1.736408E-5
472.000000	38.052357	-1.623337E-5
473.000000	38.877557	-2.281119E-5
474.000000	38.339428	-2.342120E-5
475.000000	37.959407	-1.795821E-5
476.000000	38.624733	-1.697902E-5
477.000000	39.178524	-2.033792E-5
478.000000	39.185405	-1.910447E-5
479.000000	39.077803	-1.842245E-5
480.000000	39.657803	-2.227529E-5
481.000000	39.801956	-2.210798E-5
482.000000	38.920800	-1.573525E-5
483.000000	39.888379	-1.641011E-5
484.000000	39.564487	-2.073254E-5
485.000000	39.750218	-1.763128E-5
486.000000	40.512469	-1.590171E-5
487.000000	40.651662	-1.898793E-5
488.000000	40.240836	-1.874114E-5
489.000000	40.553566	-1.600793E-5
490.000000	41.008568	-1.799436E-5
491.000000	41.100502	-2.000219E-5
492.000000	41.420011	-2.223719E-5
493.000000	40.810638	-2.332355E-5
494.000000	39.894334	-2.077567E-5
495.000000	40.597881	-2.050185E-5
496.000000	40.615908	-2.351652E-5
497.000000	40.676420	-2.525402E-5
498.000000	40.837384	-2.329813E-5
499.000000	40.934745	-2.257167E-5
500.000000	41.513979	-2.545195E-5
501.000000	41.320361	-3.039063E-5
502.000000	40.897417	-2.882760E-5
503.000000	40.979662	-2.675493E-5
504.000000	40.017684	-3.156296E-5
505.000000	41.370819	-3.624399E-5
506.000000	40.394905	-3.281104E-5
507.000000	40.689290	-2.652511E-5
508.000000	41.105329	-2.621429E-5
509.000000	40.475616	-2.644180E-5
510.000000	40.459392	-2.312066E-5
511.000000	40.994921	-2.080734E-5
512.000000	41.756581	-2.361392E-5
513.000000	41.914692	-2.706625E-5
514.000000	41.377572	-3.303734E-5
515.000000	42.181486	-3.854102E-5
516.000000	42.132283	-4.903216E-5
517.000000	42.128243	-5.881426E-5
518.000000	41.970288	-5.055296E-5
519.000000	41.572355	-4.077579E-5
520.000000	41.483519	-3.860084E-5
521.000000	41.163095	-2.942400E-5
522.000000	40.956757	-2.309942E-5
523.000000	41.373717	-2.132855E-5
524.000000	42.424012	-2.869369E-5
525.000000	42.617676	-4.036481E-5
526.000000	41.775290	-4.410011E-5
527.000000	42.479606	-4.850023E-5
528.000000	42.634539	-5.527666E-5
529.000000	42.297317	-5.251533E-5
530.000000	41.979336	-3.932235E-5
531.000000	41.020278	-2.888918E-5
532.000000	41.612477	-2.329120E-5
533.000000	41.691643	-2.464837E-5
534.000000	42.014064	-2.696007E-5
535.000000	43.337052	-3.488881E-5
536.000000	42.903083	-4.989815E-5
537.000000	41.944254	-4.917583E-5
538.000000	41.854483	-3.675330E-5
539.000000	42.800360	-3.696873E-5
540.000000	41.455938	-2.971042E-5
541.000000	41.688041	-2.602544E-5
542.000000	42.233181	-2.745079E-5
543.000000	42.649029	-3.241978E-5
544.000000	42.611029	-4.437354E-5
545.000000	42.220165	-4.756347E-5
546.000000	42.686713	-4.298693E-5
547.000000	42.754963	-4.295912E-5
548.000000	42.800242	-3.464512E-5
549.000000	42.561735	-2.509734E-5
550.000000	42.847814	-2.498532E-5
551.000000	43.120003	-2.774895E-5
552.000000	43.743406	-3.755758E-5
553.000000	43.228237	-4.598338E-5
554.000000	43.078198	-4.750713E-5
555.000000	42.792790	-4.787022E-5
556.000000	42.436631	-4.175782E-5
557.000000	41.805165	-3.226541E-5
558.000000	42.722424	-3.110532E-5
559.000000	43.325576	-3.485460E-5
560.000000	43.865793	-4.231634E-5
561.000000	42.728928	-4.930612E-5
562.000000	42.626603	-4.431530E-5
563.000000	42.936729	-4.406389E-5
564.000000	42.235129	-3.694732E-5
565.000000	42.342571	-2.874964E-5
566.000000	42.907389	-2.892490E-5
567.000000	43.098396	-3.092276E-5
568.000000	42.873121	-3.707340E-5
569.000000	42.897645	-4.292027E-5
570.000000	42.631525	-4.037552E-5
571.000000	42.779225	-3.780350E-5
572.000000	42.485211	-3.402792E-5
573.000000	42.291084	-2.762597E-5
574.000000	43.209021	-2.850887E-5
575.000000	43.329887	-3.333049E-5
576.000000	43.247818	-4.268167E-5
577.000000	42.757100	-4.709357E-5
578.000000	42.347040	-4.906067E-5
579.000000	42.142072	-4.546897E-5
580.000000	42.368579	-3.746755E-5
581.000000	42.524073	-3.378437E-5
582.000000	42.640026	-3.223187E-5
583.000000	42.861614	-3.590510E-5
584.000000	43.022675	-4.325659E-5
585.000000	42.246867	-4.518392E-5
586.000000	42.282685	-4.327126E-5
587.000000	42.394294	-4.093831E-5
588.000000	42.066360	-3.406604E-5
589.000000	41.944600	-3.244709E-5
590.000000	42.099411	-3.377027E-5
591.000000	42.376025	-4.875171E-5
592.000000	42.133894	-4.886368E-5
593.000000	42.360022	-4.891953E-5
594.000000	42.242822	-4.672186E-5
595.000000	42.343543	-4.571534E-5
596.000000	42.456259	-4.627782E-5
597.000000	42.244261	-4.756286E-5
598.000000	41.782934	-5.134421E-5
599.000000	41.781562	-5.479776E-5
600.000000	41.680294	-5.694341E-5
601.000000	41.444720	-5.871193E-5
602.000000	41.154169	-5.789323E-5
603.000000	41.353866	-5.680555E-5
604.000000	41.510403	-5.355188E-5
605.000000	41.701487	-5.127406E-5
606.000000	41.710027	-5.185534E-5
607.000000	41.758663	-5.266592E-5
608.000000	41.407286	-5.715236E-5
609.000000	41.727981	-6.220364E-5
610.000000	41.928276	-6.548460E-5
611.000000	41.895166	-6.758297E-5
612.000000	41.904583	-6.662306E-5
613.000000	42.008176	-6.406212E-5
614.000000	42.231456	-6.001240E-5
615.000000	41.959911	-5.644766E-5
616.000000	42.284515	-5.705778E-5
617.000000	42.218039	-5.989580E-5
618.000000	42.386399	-6.584297E-5
619.000000	42.622768	-7.055814E-5
620.000000	42.898184	-7.301060E-5
621.000000	43.031067	-7.511116E-5
622.000000	42.995294	-7.641083E-5
623.000000	43.209291	-7.869140E-5
624.000000	43.473246	-8.114285E-5
625.000000	42.286255	-8.370530E-5
626.000000	43.849705	-8.171724E-5
627.000000	41.985636	-7.872702E-5
628.000000	41.910196	-7.843932E-5
629.000000	42.468247	-7.901993E-5
630.000000	42.360589	-8.009207E-5
631.000000	42.474052	-8.373169E-5
632.000000	42.669163	-8.799061E-5
633.000000	42.634561	-9.085687E-5
634.000000	42.895819	-9.368093E-5
635.000000	42.584274	-9.276727E-5
636.000000	42.870890	-9.183819E-5
637.000000	42.797666	-9.180580E-5
638.000000	42.628842	-9.140572E-5
639.000000	42.836321	-9.248751E-5
640.000000	42.927069	-9.109262E-5
641.000000	42.711366	-8.891939E-5
642.000000	42.690567	-8.905422E-5
643.000000	42.787212	-8.965097E-5
644.000000	42.789562	-9.412631E-5
645.000000	42.816021	-9.863409E-5
646.000000	42.734965	-0.000102
647.000000	42.572926	-0.000101
648.000000	42.434011	-9.639715E-5
649.000000	42.366911	-9.290018E-5
650.000000	42.617759	-9.096411E-5
651.000000	42.453964	-9.240564E-5
652.000000	42.466800	-9.770685E-5
653.000000	42.353864	-0.000101
654.000000	42.356589	-0.000103
655.000000	42.054876	-9.889079E-5
656.000000	41.924963	-9.400456E-5
657.000000	41.882755	-9.230824E-5
658.000000	41.894058	-9.055399E-5
659.000000	41.808868	-9.507736E-5
660.000000	41.572034	-0.000103
661.000000	41.719027	-0.000107
662.000000	41.615404	-0.000109
663.000000	41.610270	-0.000103
664.000000	41.506671	-9.202625E-5
665.000000	41.188397	-8.687620E-5
666.000000	41.219592	-8.970154E-5
667.000000	41.290641	-9.664617E-5
668.000000	41.025032	-0.000104
669.000000	40.969351	-0.000109
670.000000	40.975868	-0.000106
671.000000	40.882422	-9.753215E-5
672.000000	40.572019	-9.432518E-5
673.000000	40.946745	-9.295192E-5
674.000000	40.797990	-9.348688E-5
675.000000	40.871593	-0.000102
676.000000	40.697677	-0.000106
677.000000	40.991206	-0.000105
678.000000	40.936045	-0.000105
679.000000	40.860191	-9.766284E-5
680.000000	40.873115	-9.241562E-5
681.000000	41.329573	-9.760475E-5
682.000000	41.153476	-0.000104
683.000000	41.102767	-0.000108
684.000000	41.311744	-0.000110
685.000000	41.410652	-0.000108
686.000000	41.226706	-9.714541E-5
687.000000	41.556717	-9.472620E-5
688.000000	41.919225	-0.000103
689.000000	41.760044	-0.000106
690.000000	41.998225	-0.000112
691.000000	42.088479	-0.000115
692.000000	42.225508	-0.000109
693.000000	42.799735	-0.000103
694.000000	42.737385	-9.782994E-5
695.000000	42.594579	-9.786717E-5
696.000000	42.835688	-0.000104
697.000000	43.071574	-0.000112
698.000000	43.178877	-0.000117
699.000000	43.142625	-0.000114
700.000000	43.640299	-0.000110
701.000000	43.358387	-0.000107
702.000000	43.498157	-0.000102
703.000000	43.690680	-0.000106
704.000000	43.849101	-0.000118
705.000000	43.724795	-0.000119
706.000000	43.986182	-0.000115
707.000000	44.206345	-0.000115
708.000000	44.296543	-0.000112
709.000000	44.265365	-0.000102
710.000000	43.943639	-0.000103
711.000000	44.020102	-0.000121
712.000000	44.132821	-0.000129
713.000000	43.969640	-0.000121
714.000000	44.108557	-0.000111
715.000000	44.488415	-0.000103
716.000000	44.524767	-0.000104
717.000000	44.247893	-0.000107
718.000000	43.933785	-0.000112
719.000000	43.683739	-0.000118
720.000000	43.401260	-0.000117
721.000000	43.375830	-0.000116
722.000000	42.761922	-0.000109
723.000000	42.809296	-0.000102
724.000000	42.388407	-0.000102
725.000000	42.203629	-0.000107
726.000000	41.849879	-0.000110
727.000000	41.268364	-0.000112
728.000000	41.232121	-0.000109
729.000000	40.559290	-0.000103
730.000000	40.054361	-9.688867E-5
731.000000	39.893240	-9.437334E-5
732.000000	39.089148	-9.449950E-5
733.000000	38.618815	-9.789288E-5
734.000000	37.967784	-0.000101
735.000000	37.546703	-9.851012E-5
736.000000	37.168799	-9.511585E-5
737.000000	36.120168	-9.044089E-5
738.000000	35.236387	-8.508263E-5
739.000000	34.798537	-8.362393E-5
740.000000	33.872823	-8.309398E-5
741.000000	33.307817	-8.364778E-5
742.000000	32.418398	-8.333680E-5
743.000000	31.600611	-7.963520E-5
744.000000	30.727292	-7.385842E-5
745.000000	29.836165	-6.975565E-5
746.000000	28.849220	-6.605341E-5
747.000000	28.013865	-6.439027E-5
748.000000	27.254356	-6.481619E-5
749.000000	26.051855	-6.231857E-5
750.000000	25.333027	-6.048179E-5
751.000000	24.323207	-5.682507E-5
752.000000	23.621481	-5.247246E-5
753.000000	22.317036	-4.826086E-5
754.000000	21.456910	-4.551676E-5
755.000000	20.409060	-4.385629E-5
756.000000	19.553657	-4.288758E-5
757.000000	18.696678	-4.093463E-5
758.000000	17.754948	-3.827320E-5
759.000000	16.860465	-3.560837E-5
760.000000	16.075451	-3.261174E-5
761.000000	15.098041	-2.964338E-5
762.000000	14.295133	-2.800432E-5
763.000000	13.445669	-2.671913E-5
764.000000	12.709267	-2.567913E-5
765.000000	12.035092	-2.425559E-5
766.000000	11.369199	-2.241648E-5
767.000000	10.644548	-2.048860E-5
768.000000	10.021809	-1.871258E-5
769.000000	9.425645	-1.728976E-5
770.000000	8.763373	-1.616650E-5
771.000000	8.252665	-1.544693E-5
772.000000	7.743485	-1.465439E-5
773.000000	7.269787	-1.364674E-5
774.000000	6.753000	-1.233358E-5
775.000000	6.382349	-1.120687E-5
776.000000	5.932683	-1.010153E-5
777.000000	5.567303	-9.511444E-6
778.000000	5.218047	-9.174367E-6
779.000000	4.878731	-8.821500E-6
780.000000	4.585183	-8.368407E-6
781.000000	4.304421	-7.658372E-6
782.000000	4.034476	-6.903135E-6
783.000000	3.792707	-6.273610E-6
784.000000	3.547053	-5.833621E-6
785.000000	3.320854	-5.617571E-6
786.000000	3.134349	-5.379774E-6
787.000000	2.940002	-5.083876E-6
788.000000	2.771824	-4.727523E-6
789.000000	2.618733	-4.280719E-6
790.000000	2.462166	-3.896187E-6
791.000000	2.325818	-3.614818E-6
792.000000	2.184855	-3.463132E-6
793.000000	2.055669	-3.378928E-6
794.000000	1.930201	-3.308692E-6
795.000000	1.835651	-3.177915E-6
796.000000	1.741415	-2.889626E-6
797.000000	1.642906	-2.631235E-6
798.000000	1.559302	-2.476476E-6
799.000000	1.469476	-2.368776E-6
800.000000	1.391906	-2.337599E-6
801.000000	1.321766	-2.323154E-6
802.000000	1.260468	-2.242103E-6
803.000000	1.199856	-2.074023E-6
804.000000	1.141609	-1.872868E-6
805.000000	1.089373	-1.724113E-6
806.000000	1.033243	-1.626166E-6
807.000000	0.981749	-1.591682E-6
808.000000	0.937805	-1.601888E-6
809.000000	0.901571	-1.567001E-6
810.000000	0.863397	-1.459052E-6
811.000000	0.822969	-1.348666E-6
812.000000	0.786825	-1.218964E-6
813.000000	0.752119	-1.130864E-6
814.000000	0.716624	-1.108813E-6
815.000000	0.686703	-1.106885E-6
816.000000	0.656294	-1.107839E-6
817.000000	0.630936	-1.065306E-6
818.000000	0.607065	-9.668092E-7
819.000000	0.577674	-8.702236E-7
820.000000	0.554850	-8.107178E-7
821.000000	0.533286	-7.852041E-7
822.000000	0.508846	-7.907470E-7
823.000000	0.485062	-7.970490E-7
824.000000	0.468415	-7.802087E-7
825.000000	0.450956	-7.349922E-7
826.000000	0.432489	-6.700942E-7
827.000000	0.414570	-6.224532E-7
828.000000	0.400364	-6.069569E-7
829.000000	0.384482	-5.941854E-7
830.000000	0.368163	-5.919306E-7
831.000000	0.353806	-5.851938E-7
832.000000	0.339198	-5.544262E-7
833.000000	0.327649	-5.153550E-7
834.000000	0.315996	-4.731512E-7
835.000000	0.303629	-4.402423E-7
836.000000	0.288674	-4.256010E-7
837.000000	0.278587	-4.249155E-7
838.000000	0.268127	-4.191116E-7
839.000000	0.257375	-4.058190E-7
840.000000	0.248982	-3.866038E-7
841.000000	0.240488	-3.572054E-7
842.000000	0.230131	-3.333712E-7
843.000000	0.220788	-3.243307E-7
844.000000	0.213298	-3.201436E-7
845.000000	0.204232	-3.128726E-7
846.000000	0.196780	-3.031717E-7
847.000000	0.190275	-2.885095E-7
848.000000	0.183558	-2.669974E-7
849.000000	0.176013	-2.453260E-7
850.000000	0.168935	-2.356531E-7
851.000000	0.162733	-2.304053E-7
852.000000	0.156471	-2.237905E-7
853.000000	0.149930	-2.175706E-7
854.000000	0.145043	-2.070579E-7
855.000000	0.139757	-1.922892E-7
856.000000	0.134407	-1.791734E-7
857.000000	0.129607	-1.686766E-7
858.000000	0.123995	-1.624893E-7
859.000000	0.118849	-1.588146E-7
860.000000	0.114647	-1.518194E-7
861.000000	0.110574	-1.419301E-7
862.000000	0.106157	-1.302996E-7
863.000000	0.102280	-1.197969E-7
864.000000	0.098636	-1.134177E-7
865.000000	0.095254	-1.088414E-7
866.000000	0.091762	-1.033096E-7
867.000000	0.087283	-9.886720E-8
868.000000	0.084460	-9.340427E-8
869.000000	0.081101	-8.534523E-8
870.000000	0.078527	-8.010640E-8
871.000000	0.075289	-7.523443E-8
872.000000	0.072373	-7.131858E-8
873.000000	0.069609	-6.894687E-8
874.000000	0.066272	-6.499097E-8
875.000000	0.064214	-6.149075E-8
876.000000	0.061871	-5.740727E-8
877.000000	0.059381	-5.322664E-8
878.000000	0.057118	-5.042684E-8
879.000000	0.054915	-4.786654E-8
880.000000	0.052788	-4.550085E-8
881.000000	0.050652	-4.359556E-8
882.000000	0.048553	-4.114102E-8
883.000000	0.046622	-3.889247E-8
884.000000	0.044851	-3.694971E-8
885.000000	0.043118	-3.458908E-8
886.000000	0.041501	-3.259707E-8
887.000000	0.039862	-3.137511E-8
888.000000	0.038338	-3.015497E-8
889.000000	0.036677	-2.870112E-8
890.000000	0.035395	-2.736404E-8
891.000000	0.034019	-2.589760E-8
892.000000	0.032667	-2.445605E-8
893.000000	0.031332	-2.336330E-8
894.000000	0.030086	-2.281002E-8
895.000000	0.028917	-2.185579E-8
896.000000	0.027736	-2.070208E-8
897.000000	0.026528	-1.982909E-8
898.000000	0.025532	-1.891131E-8
899.000000	0.024507	-1.809998E-8
900.000000	0.023518	-1.733054E-8
901.000000	0.022538	-1.654112E-8
902.000000	0.021647	-1.598345E-8
903.000000	0.020813	-1.523490E-8
904.000000	0.019950	-1.451934E-8
905.000000	0.019113	-1.407812E-8
906.000000	0.018398	-1.345002E-8
907.000000	0.017622	-1.285435E-8
908.000000	0.016884	-1.234876E-8
909.000000	0.016213	-1.176205E-8
910.000000	0.015534	-1.133047E-8
911.000000	0.014937	-1.087462E-8
912.000000	0.014297	-1.043439E-8
913.000000	0.013718	-1.011041E-8
914.000000	0.013189	-9.659307E-9
915.000000	0.012641	-9.244245E-9
916.000000	0.012167	-8.806031E-9
917.000000	0.011655	-8.331210E-9
918.000000	0.011156	-8.092289E-9
919.000000	0.010712	-7.781266E-9
920.000000	0.010263	-7.341844E-9
921.000000	0.009836	-7.085669E-9
922.000000	0.009434	-6.752584E-9
923.000000	0.009057	-6.415890E-9
924.000000	0.008688	-6.174909E-9
925.000000	0.008316	-5.863743E-9
926.000000	0.007968	-5.659612E-9
927.000000	0.007649	-5.450770E-9
928.000000	0.007330	-5.180950E-9
929.000000	0.007017	-4.971659E-9
930.000000	0.006749	-4.664728E-9
931.000000	0.006456	-4.386350E-9
932.000000	0.006222	-4.224909E-9
933.000000	0.005970	-3.998347E-9
934.000000	0.005707	-3.837178E-9
935.000000	0.005486	-3.677912E-9
936.000000	0.005248	-3.476541E-9
937.000000	0.005032	-3.349271E-9
938.000000	0.004840	-3.170662E-9
939.000000	0.004645	-3.007584E-9
940.000000	0.004454	-2.919301E-9
941.000000	0.004269	-2.783666E-9
942.000000	0.004094	-2.675387E-9
943.000000	0.003932	-2.563883E-9
944.000000	0.003770	-2.397809E-9
945.000000	0.003621	-2.275534E-9
946.000000	0.003483	-2.157772E-9
947.000000	0.003337	-2.039922E-9
948.000000	0.003204	-1.976241E-9
949.000000	0.003091	-1.891796E-9
950.000000	0.002959	-1.804128E-9
951.000000	0.002846	-1.727698E-9
952.000000	0.002734	-1.629825E-9
953.000000	0.002626	-1.569478E-9
954.000000	0.002526	-1.508138E-9
955.000000	0.002428	-1.434206E-9
956.000000	0.002339	-1.389572E-9
957.000000	0.002244	-1.320717E-9
958.000000	0.002156	-1.247417E-9
959.000000	0.002084	-1.190901E-9
960.000000	0.002004	-1.115994E-9
961.000000	0.001931	-1.067570E-9
962.000000	0.001864	-1.027332E-9
963.000000	0.001792	-9.832553E-10
964.000000	0.001723	-9.534565E-10
965.000000	0.001663	-9.084353E-10
966.000000	0.001598	-8.607878E-10
967.000000	0.001547	-8.323962E-10
968.000000	0.001494	-7.949197E-10
969.000000	0.001434	-7.623939E-10
970.000000	0.001390	-7.374167E-10
971.000000	0.001344	-7.004909E-10
972.000000	0.001295	-6.671493E-10
973.000000	0.001254	-6.338489E-10
974.000000	0.001215	-6.006656E-10
975.000000	0.001176	-5.749613E-10
976.000000	0.001139	-5.503597E-10
977.000000	0.001101	-5.314955E-10
978.000000	0.001065	-5.165313E-10
979.000000	0.001032	-4.970858E-10
980.000000	0.000999	-4.798169E-10
981.000000	0.000971	-4.621140E-10
982.000000	0.000940	-4.454016E-10
983.000000	0.000905	-4.320396E-10
984.000000	0.000880	-4.172163E-10
985.000000	0.000856	-4.023288E-10
986.000000	0.000835	-3.877991E-10
987.000000	0.000811	-3.684359E-10
988.000000	0.000793	-3.540645E-10
989.000000	0.000776	-3.425616E-10
990.000000	0.000757	-3.304954E-10
991.000000	0.000734	-3.213858E-10
992.000000	0.000706	-3.111674E-10
993.000000	0.000688	-3.055184E-10
994.000000	0.000667	-3.003860E-10
995.000000	0.000650	-2.926312E-10
996.000000	0.000630	-2.844658E-10
997.000000	0.000614	-2.768697E-10
998.000000	0.000596	-2.686632E-10
999.000000	0.000580	-2.619528E-10
1000.000000	0.000564	-2.533182E-10
1001.000000	0.000549	-2.452407E-10
1002.000000	0.000541	-2.402372E-10
1003.000000	0.000527	-2.318021E-10
1004.000000	0.000521	-2.269394E-10
1005.000000	0.000506	-2.209149E-10
1006.000000	0.000493	-2.162928E-10
1007.000000	0.000480	-2.132188E-10
1008.000000	0.000464	-2.079457E-10
1009.000000	0.000454	-2.030712E-10
1010.000000	0.000442	-1.990413E-10
1011.000000	0.000434	-1.943544E-10
1012.000000	0.000419	-1.888814E-10
1013.000000	0.000406	-1.861362E-10
1014.000000	0.000395	-1.818249E-10
1015.000000	0.000390	-1.790153E-10
1016.000000	0.000377	-1.743108E-10
1017.000000	0.000369	-1.726330E-10
1018.000000	0.000356	-1.704276E-10
1019.000000	0.000343	-1.702340E-10
1020.000000	0.000330	-1.693659E-10
1021.000000	0.000315	-1.659342E-10
1022.000000	0.000307	-1.614645E-10
1023.000000	0.000303	-1.596637E-10
1024.000000	0.000290	-1.571003E-10
1025.000000	0.000280	-1.575519E-10
1026.000000	0.000266	-1.568480E-10
1027.000000	0.000255	-1.575988E-10
1028.000000	0.000241	-1.571824E-10
1029.000000	0.000232	-1.595523E-10
1030.000000	0.000222	-1.587662E-10
1031.000000	0.000213	-1.560033E-10
1032.000000	0.000206	-1.531702E-10
1033.000000	0.000204	-1.512697E-10
1034.000000	0.000203	-1.451633E-10
1035.000000	0.000204	-1.384117E-10
1036.000000	0.000208	-1.323816E-10
1037.000000	0.000212	-1.273603E-10
1038.000000	0.000212	-1.223039E-10
1039.000000	0.000210	-1.172710E-10
1040.000000	0.000208	-1.141680E-10
1041.000000	0.000204	-1.107658E-10
1042.000000	0.000202	-1.089122E-10
1043.000000	0.000197	-1.053752E-10
1044.000000	0.000196	-1.047592E-10
1045.000000	0.000191	-1.030580E-10
1046.000000	0.000186	-1.019025E-10
1047.000000	0.000175	-9.871727E-11
1048.000000	0.000168	-9.811317E-11
1049.000000	0.000161	-9.712187E-11
1050.000000	0.000156	-9.647658E-11
1051.000000	0.000152	-9.621849E-11
1052.000000	0.000146	-9.476366E-11
1053.000000	0.000140	-9.485757E-11
1054.000000	0.000135	-9.466410E-11
1055.000000	0.000128	-9.366689E-11
1056.000000	0.000124	-9.637682E-11
1057.000000	0.000115	-9.452912E-11
1058.000000	0.000110	-9.526223E-11
1059.000000	0.000101	-9.549700E-11
1060.000000	9.423498E-5	-1.014684E-10
1061.000000	8.336923E-5	-1.057564E-10
1062.000000	7.448352E-5	-1.167431E-10
1063.000000	6.092752E-5	-1.505071E-10
1064.000000	4.802447E-5	-2.229154E-10
1065.000000	4.678474E-5	-2.460382E-10
1066.000000	5.006628E-5	-1.782819E-10
1067.000000	5.794279E-5	-1.199283E-10
1068.000000	6.503273E-5	-1.000489E-10
1069.000000	7.097574E-5	-8.458641E-11
1070.000000	8.126006E-5	-7.832168E-11
1071.000000	8.486517E-5	-7.257907E-11
1072.000000	9.074056E-5	-7.037347E-11
1073.000000	9.205962E-5	-6.707097E-11
1074.000000	9.704578E-5	-6.572777E-11
1075.000000	9.925469E-5	-6.386824E-11
1076.000000	0.000102	-6.273027E-11
1077.000000	0.000103	-6.183862E-11
1078.000000	0.000101	-5.888229E-11
1079.000000	0.000102	-5.749789E-11
1080.000000	0.000102	-5.675294E-11
1081.000000	0.000103	-5.579090E-11
1082.000000	0.000105	-5.594929E-11
1083.000000	9.953687E-5	-5.231832E-11
1084.000000	0.000101	-5.196053E-11
1085.000000	0.000101	-5.174935E-11
1086.000000	0.000103	-5.247084E-11
1087.000000	0.000102	-5.104543E-11
1088.000000	0.000102	-5.029458E-11
1089.000000	9.783348E-5	-4.839408E-11
1090.000000	0.000103	-5.048234E-11
1091.000000	0.000100	-4.881641E-11
1092.000000	9.935926E-5	-4.778990E-11
1093.000000	9.846442E-5	-4.682793E-11
1094.000000	9.600720E-5	-4.506815E-11
1095.000000	9.852484E-5	-4.532038E-11
1096.000000	9.633795E-5	-4.400053E-11
1097.000000	9.607318E-5	-4.415300E-11
1098.000000	9.545085E-5	-4.363683E-11
1099.000000	9.511250E-5	-4.453434E-11
1100.000000	9.236176E-5	-4.434659E-11
