Wavelength (nm)	EQE (%)	Current (A)	Dark Current (A) -> 	-64.826770000E-12	
400.000000	55.441147	-1.200022E-6
401.000000	59.278295	-1.775758E-6
402.000000	58.507548	-2.662741E-6
403.000000	59.399029	-4.018882E-6
404.000000	59.692717	-5.423680E-6
405.000000	58.696630	-7.125028E-6
406.000000	58.699449	-9.775251E-6
407.000000	58.289976	-1.055059E-5
408.000000	58.499433	-1.151547E-5
409.000000	58.201921	-1.280797E-5
410.000000	58.920380	-1.300500E-5
411.000000	58.922811	-1.726675E-5
412.000000	58.862421	-2.007106E-5
413.000000	58.983706	-2.611175E-5
414.000000	57.682491	-2.973947E-5
415.000000	58.762541	-3.022270E-5
416.000000	58.642212	-2.878576E-5
417.000000	58.102667	-2.551954E-5
418.000000	57.538598	-1.719247E-5
419.000000	58.830904	-1.281443E-5
420.000000	59.276121	-1.316153E-5
421.000000	58.563761	-1.417622E-5
422.000000	58.265410	-1.277596E-5
423.000000	58.496062	-1.333703E-5
424.000000	59.107547	-1.503622E-5
425.000000	57.787555	-1.587225E-5
426.000000	58.537267	-1.708929E-5
427.000000	59.059366	-1.794212E-5
428.000000	59.008478	-1.970913E-5
429.000000	59.703297	-2.224999E-5
430.000000	59.435293	-2.403513E-5
431.000000	59.261276	-2.440077E-5
432.000000	59.083220	-2.404833E-5
433.000000	59.693374	-2.469754E-5
434.000000	58.451728	-2.709557E-5
435.000000	58.986453	-2.791809E-5
436.000000	58.721906	-2.798469E-5
437.000000	59.425712	-3.053155E-5
438.000000	59.054810	-3.159906E-5
439.000000	58.363169	-3.070413E-5
440.000000	58.702759	-3.061667E-5
441.000000	59.159156	-3.387438E-5
442.000000	59.260932	-3.313122E-5
443.000000	59.329237	-3.174050E-5
444.000000	59.257044	-3.127594E-5
445.000000	58.881426	-3.089770E-5
446.000000	59.347728	-3.028394E-5
447.000000	59.197074	-3.376987E-5
448.000000	58.980524	-3.797014E-5
449.000000	58.143000	-3.488211E-5
450.000000	58.955499	-3.274172E-5
451.000000	59.468383	-3.618046E-5
452.000000	58.514298	-3.754837E-5
453.000000	58.711481	-3.490272E-5
454.000000	59.202957	-3.084244E-5
455.000000	59.150862	-3.238480E-5
456.000000	59.771832	-3.837098E-5
457.000000	59.517572	-4.225315E-5
458.000000	58.735704	-4.251535E-5
459.000000	59.091107	-4.045832E-5
460.000000	58.368365	-3.725757E-5
461.000000	59.026546	-3.538244E-5
462.000000	58.949961	-3.450164E-5
463.000000	58.813727	-3.458435E-5
464.000000	57.826056	-3.391886E-5
465.000000	58.743098	-3.481869E-5
466.000000	58.167665	-3.231597E-5
467.000000	58.050517	-2.615672E-5
468.000000	58.959619	-2.581190E-5
469.000000	59.537059	-3.376144E-5
470.000000	58.222586	-3.508453E-5
471.000000	57.809657	-2.661601E-5
472.000000	59.176009	-2.524485E-5
473.000000	59.790716	-3.508187E-5
474.000000	58.318813	-3.562642E-5
475.000000	57.551627	-2.722709E-5
476.000000	58.074432	-2.552890E-5
477.000000	58.829083	-3.053870E-5
478.000000	58.519349	-2.853055E-5
479.000000	59.122729	-2.787223E-5
480.000000	59.237874	-3.327317E-5
481.000000	58.250327	-3.235512E-5
482.000000	58.026193	-2.345935E-5
483.000000	60.299667	-2.480733E-5
484.000000	58.998480	-3.091632E-5
485.000000	58.026551	-2.573778E-5
486.000000	60.018398	-2.355806E-5
487.000000	60.261024	-2.814724E-5
488.000000	59.114615	-2.753112E-5
489.000000	59.368016	-2.343466E-5
490.000000	60.771822	-2.666638E-5
491.000000	61.116043	-2.974306E-5
492.000000	59.873616	-3.214439E-5
493.000000	59.271264	-3.387392E-5
494.000000	58.586632	-3.051001E-5
495.000000	59.979521	-3.028954E-5
496.000000	58.673490	-3.397182E-5
497.000000	59.105076	-3.669548E-5
498.000000	58.749065	-3.351692E-5
499.000000	58.815032	-3.243097E-5
500.000000	59.874604	-3.670873E-5
501.000000	58.885420	-4.330952E-5
502.000000	57.740853	-4.070013E-5
503.000000	58.492537	-3.818879E-5
504.000000	56.462814	-4.453365E-5
505.000000	57.564354	-5.043076E-5
506.000000	56.907416	-4.622344E-5
507.000000	57.114763	-3.723278E-5
508.000000	58.368670	-3.722372E-5
509.000000	57.699007	-3.769345E-5
510.000000	57.087973	-3.262312E-5
511.000000	57.996394	-2.943659E-5
512.000000	59.078583	-3.340975E-5
513.000000	59.498646	-3.842102E-5
514.000000	57.447666	-4.586828E-5
515.000000	58.917844	-5.383295E-5
516.000000	58.769514	-6.839402E-5
517.000000	57.370377	-8.009345E-5
518.000000	57.525725	-6.928939E-5
519.000000	57.620727	-5.651666E-5
520.000000	57.749702	-5.373669E-5
521.000000	57.504315	-4.110495E-5
522.000000	57.405475	-3.237642E-5
523.000000	58.656013	-3.023774E-5
524.000000	60.343345	-4.081352E-5
525.000000	59.996753	-5.682519E-5
526.000000	59.223544	-6.251937E-5
527.000000	59.893131	-6.838177E-5
528.000000	58.688570	-7.609108E-5
529.000000	58.095473	-7.212994E-5
530.000000	58.315315	-5.462438E-5
531.000000	57.792823	-4.070151E-5
532.000000	59.267568	-3.317305E-5
533.000000	59.619339	-3.524734E-5
534.000000	60.329670	-3.871304E-5
535.000000	61.837934	-4.978308E-5
536.000000	60.791537	-7.070320E-5
537.000000	59.729665	-7.002761E-5
538.000000	59.849543	-5.255514E-5
539.000000	60.710801	-5.243884E-5
540.000000	58.862289	-4.218511E-5
541.000000	60.397078	-3.770531E-5
542.000000	61.290182	-3.983749E-5
543.000000	61.517129	-4.676242E-5
544.000000	61.111239	-6.363897E-5
545.000000	61.102475	-6.883549E-5
546.000000	60.369549	-6.079413E-5
547.000000	61.405077	-6.169829E-5
548.000000	61.260283	-4.958780E-5
549.000000	61.548078	-3.629300E-5
550.000000	62.634470	-3.652327E-5
551.000000	62.949460	-4.050977E-5
552.000000	63.688866	-5.468252E-5
553.000000	62.427486	-6.640629E-5
554.000000	61.972053	-6.834349E-5
555.000000	61.625061	-6.893697E-5
556.000000	60.889907	-5.991592E-5
557.000000	61.751657	-4.766020E-5
558.000000	63.132256	-4.596530E-5
559.000000	63.643298	-5.119982E-5
560.000000	64.308606	-6.203706E-5
561.000000	62.517636	-7.214087E-5
562.000000	62.837045	-6.532640E-5
563.000000	62.831440	-6.448087E-5
564.000000	62.458307	-5.463857E-5
565.000000	62.678806	-4.255748E-5
566.000000	64.064906	-4.318769E-5
567.000000	64.715510	-4.643287E-5
568.000000	64.465200	-5.574458E-5
569.000000	62.964051	-6.299726E-5
570.000000	63.948164	-6.056411E-5
571.000000	63.901764	-5.646924E-5
572.000000	63.907194	-5.118555E-5
573.000000	63.606175	-4.154971E-5
574.000000	64.814311	-4.276382E-5
575.000000	65.632452	-5.048621E-5
576.000000	65.066289	-6.421452E-5
577.000000	64.583740	-7.113389E-5
578.000000	63.911653	-7.404410E-5
579.000000	63.878838	-6.892174E-5
580.000000	64.192877	-5.676730E-5
581.000000	64.521154	-5.126053E-5
582.000000	64.462872	-4.872790E-5
583.000000	65.065062	-5.450489E-5
584.000000	65.391455	-6.574699E-5
585.000000	64.159093	-6.861951E-5
586.000000	64.178741	-6.567925E-5
587.000000	64.306722	-6.209818E-5
588.000000	64.648767	-5.235365E-5
589.000000	64.889953	-5.019693E-5
590.000000	64.881978	-5.204543E-5
591.000000	65.423723	-7.526705E-5
592.000000	65.895474	-7.642055E-5
593.000000	65.431943	-7.556417E-5
594.000000	66.278438	-7.330599E-5
595.000000	66.358512	-7.164261E-5
596.000000	66.169619	-7.212566E-5
597.000000	65.585947	-7.384329E-5
598.000000	65.149787	-8.005815E-5
599.000000	65.131585	-8.542201E-5
600.000000	65.805723	-8.990345E-5
601.000000	64.684808	-9.163459E-5
602.000000	63.962436	-8.997854E-5
603.000000	63.615462	-8.738509E-5
604.000000	64.341307	-8.300565E-5
605.000000	64.976931	-7.989238E-5
606.000000	64.695716	-8.043194E-5
607.000000	65.185343	-8.221159E-5
608.000000	64.501048	-8.902750E-5
609.000000	64.787225	-9.657791E-5
610.000000	64.871061	-0.000101
611.000000	65.153914	-0.000105
612.000000	64.881883	-0.000103
613.000000	64.631486	-9.856248E-5
614.000000	64.828569	-9.212370E-5
615.000000	64.730636	-8.708057E-5
616.000000	64.921506	-8.760363E-5
617.000000	65.042739	-9.227778E-5
618.000000	64.731489	-0.000101
619.000000	65.224220	-0.000108
620.000000	64.928022	-0.000111
621.000000	64.832511	-0.000113
622.000000	64.102018	-0.000114
623.000000	64.397665	-0.000117
624.000000	64.333804	-0.000120
625.000000	64.287507	-0.000127
626.000000	64.000677	-0.000119
627.000000	62.762875	-0.000118
628.000000	62.298732	-0.000117
629.000000	63.253021	-0.000118
630.000000	63.015791	-0.000119
631.000000	63.190253	-0.000125
632.000000	63.030922	-0.000130
633.000000	63.169694	-0.000135
634.000000	63.039561	-0.000138
635.000000	62.809361	-0.000137
636.000000	63.185534	-0.000135
637.000000	62.893257	-0.000135
638.000000	62.814937	-0.000135
639.000000	62.659984	-0.000135
640.000000	62.765543	-0.000133
641.000000	62.766493	-0.000131
642.000000	62.682267	-0.000131
643.000000	62.517049	-0.000131
644.000000	62.673460	-0.000138
645.000000	62.590148	-0.000144
646.000000	62.605465	-0.000149
647.000000	62.604000	-0.000149
648.000000	62.613939	-0.000142
649.000000	62.750291	-0.000138
650.000000	62.787656	-0.000134
651.000000	62.737156	-0.000137
652.000000	62.567248	-0.000144
653.000000	62.582942	-0.000149
654.000000	62.341280	-0.000152
655.000000	62.613464	-0.000147
656.000000	62.439832	-0.000140
657.000000	62.554818	-0.000138
658.000000	62.592517	-0.000135
659.000000	62.682503	-0.000143
660.000000	61.994148	-0.000153
661.000000	62.511730	-0.000160
662.000000	62.062129	-0.000162
663.000000	62.557142	-0.000154
664.000000	62.526036	-0.000139
665.000000	62.290788	-0.000131
666.000000	62.421795	-0.000136
667.000000	62.370650	-0.000146
668.000000	62.170615	-0.000157
669.000000	61.517747	-0.000164
670.000000	61.788008	-0.000160
671.000000	61.722670	-0.000147
672.000000	61.225586	-0.000142
673.000000	62.146007	-0.000141
674.000000	61.942048	-0.000142
675.000000	62.009147	-0.000155
676.000000	61.439553	-0.000160
677.000000	61.791382	-0.000159
678.000000	61.664446	-0.000158
679.000000	61.713830	-0.000148
680.000000	61.920751	-0.000140
681.000000	61.832680	-0.000146
682.000000	61.967694	-0.000157
683.000000	61.588443	-0.000161
684.000000	61.661388	-0.000164
685.000000	61.748725	-0.000161
686.000000	61.817349	-0.000146
687.000000	62.030001	-0.000141
688.000000	62.015008	-0.000152
689.000000	62.023555	-0.000157
690.000000	61.931866	-0.000165
691.000000	61.807905	-0.000168
692.000000	61.978991	-0.000160
693.000000	62.565412	-0.000151
694.000000	62.571187	-0.000143
695.000000	62.233537	-0.000143
696.000000	62.533163	-0.000151
697.000000	62.270471	-0.000162
698.000000	62.205117	-0.000169
699.000000	62.014655	-0.000163
700.000000	62.372447	-0.000157
701.000000	61.944269	-0.000153
702.000000	62.368312	-0.000146
703.000000	62.269340	-0.000151
704.000000	62.186807	-0.000167
705.000000	62.271362	-0.000169
706.000000	62.259121	-0.000162
707.000000	62.570288	-0.000163
708.000000	63.150624	-0.000160
709.000000	62.999750	-0.000145
710.000000	62.618284	-0.000147
711.000000	61.999091	-0.000170
712.000000	61.399534	-0.000179
713.000000	62.053418	-0.000170
714.000000	61.968545	-0.000156
715.000000	63.191796	-0.000146
716.000000	62.942335	-0.000147
717.000000	62.542315	-0.000151
718.000000	62.474875	-0.000159
719.000000	61.747499	-0.000167
720.000000	61.495365	-0.000166
721.000000	61.965197	-0.000165
722.000000	62.246187	-0.000158
723.000000	62.208114	-0.000148
724.000000	62.061062	-0.000149
725.000000	61.998067	-0.000157
726.000000	61.974125	-0.000163
727.000000	61.452299	-0.000166
728.000000	61.680122	-0.000163
729.000000	61.452297	-0.000156
730.000000	60.831913	-0.000147
731.000000	61.384465	-0.000145
732.000000	60.678757	-0.000147
733.000000	60.246380	-0.000153
734.000000	59.933718	-0.000160
735.000000	59.818522	-0.000157
736.000000	59.609170	-0.000153
737.000000	58.937877	-0.000148
738.000000	58.547042	-0.000141
739.000000	58.170540	-0.000140
740.000000	57.768842	-0.000142
741.000000	57.480068	-0.000144
742.000000	56.829837	-0.000146
743.000000	56.118275	-0.000141
744.000000	55.752798	-0.000134
745.000000	55.256466	-0.000129
746.000000	54.356986	-0.000124
747.000000	53.538756	-0.000123
748.000000	52.891990	-0.000126
749.000000	52.013145	-0.000124
750.000000	51.182425	-0.000122
751.000000	50.365007	-0.000118
752.000000	49.374549	-0.000110
753.000000	48.226042	-0.000104
754.000000	47.337304	-0.000100
755.000000	45.868208	-9.856453E-5
756.000000	44.738971	-9.812723E-5
757.000000	43.510494	-9.526216E-5
758.000000	42.350292	-9.129180E-5
759.000000	41.054423	-8.670467E-5
760.000000	39.760751	-8.066133E-5
761.000000	38.291057	-7.518037E-5
762.000000	36.761452	-7.201608E-5
763.000000	35.512528	-7.057022E-5
764.000000	34.170334	-6.904131E-5
765.000000	32.765669	-6.603611E-5
766.000000	31.505868	-6.211965E-5
767.000000	30.102236	-5.794071E-5
768.000000	28.736705	-5.365677E-5
769.000000	27.434944	-5.032479E-5
770.000000	25.959207	-4.788904E-5
771.000000	24.768851	-4.636111E-5
772.000000	23.565042	-4.459637E-5
773.000000	22.309275	-4.187865E-5
774.000000	21.317971	-3.893483E-5
775.000000	20.121992	-3.533253E-5
776.000000	18.937380	-3.224452E-5
777.000000	17.925962	-3.062556E-5
778.000000	16.967586	-2.983240E-5
779.000000	16.013203	-2.895435E-5
780.000000	15.134613	-2.762215E-5
781.000000	14.347358	-2.552664E-5
782.000000	13.532844	-2.315519E-5
783.000000	12.743605	-2.107951E-5
784.000000	12.002410	-1.973963E-5
785.000000	11.312283	-1.913591E-5
786.000000	10.749912	-1.845107E-5
787.000000	10.139560	-1.753341E-5
788.000000	9.620801	-1.640889E-5
789.000000	9.113709	-1.489775E-5
790.000000	8.587264	-1.358868E-5
791.000000	8.133489	-1.264118E-5
792.000000	7.665912	-1.215095E-5
793.000000	7.225801	-1.187714E-5
794.000000	6.823267	-1.169624E-5
795.000000	6.521211	-1.128965E-5
796.000000	6.186260	-1.026520E-5
797.000000	5.845193	-9.361504E-6
798.000000	5.553598	-8.820197E-6
799.000000	5.251884	-8.465970E-6
800.000000	4.981251	-8.365628E-6
801.000000	4.744822	-8.339565E-6
802.000000	4.536161	-8.068858E-6
803.000000	4.325142	-7.476264E-6
804.000000	4.117336	-6.754699E-6
805.000000	3.916643	-6.198737E-6
806.000000	3.723144	-5.859659E-6
807.000000	3.550696	-5.756640E-6
808.000000	3.407636	-5.820669E-6
809.000000	3.264015	-5.673112E-6
810.000000	3.119785	-5.272113E-6
811.000000	2.973754	-4.873333E-6
812.000000	2.855879	-4.424384E-6
813.000000	2.719176	-4.088470E-6
814.000000	2.599323	-4.021862E-6
815.000000	2.476178	-3.991312E-6
816.000000	2.375689	-4.010217E-6
817.000000	2.285807	-3.859480E-6
818.000000	2.190995	-3.489368E-6
819.000000	2.099559	-3.162833E-6
820.000000	2.005713	-2.930644E-6
821.000000	1.925661	-2.835322E-6
822.000000	1.842195	-2.862770E-6
823.000000	1.761493	-2.894467E-6
824.000000	1.702168	-2.835192E-6
825.000000	1.631768	-2.659541E-6
826.000000	1.565226	-2.425148E-6
827.000000	1.505861	-2.260965E-6
828.000000	1.443124	-2.187792E-6
829.000000	1.388702	-2.146123E-6
830.000000	1.326087	-2.132075E-6
831.000000	1.272161	-2.104153E-6
832.000000	1.224555	-2.001558E-6
833.000000	1.178797	-1.854117E-6
834.000000	1.128945	-1.690408E-6
835.000000	1.084241	-1.572080E-6
836.000000	1.035512	-1.526689E-6
837.000000	0.998709	-1.523282E-6
838.000000	0.956613	-1.495292E-6
839.000000	0.918832	-1.448776E-6
840.000000	0.884620	-1.373581E-6
841.000000	0.852609	-1.266409E-6
842.000000	0.814849	-1.180404E-6
843.000000	0.782596	-1.149607E-6
844.000000	0.753102	-1.130346E-6
845.000000	0.719619	-1.102418E-6
846.000000	0.693062	-1.067775E-6
847.000000	0.669609	-1.015311E-6
848.000000	0.641292	-9.328016E-7
849.000000	0.616560	-8.593564E-7
850.000000	0.591696	-8.253775E-7
851.000000	0.567818	-8.039445E-7
852.000000	0.544139	-7.782475E-7
853.000000	0.522629	-7.584134E-7
854.000000	0.502569	-7.174486E-7
855.000000	0.482129	-6.633537E-7
856.000000	0.462896	-6.170711E-7
857.000000	0.445609	-5.799383E-7
858.000000	0.426423	-5.588076E-7
859.000000	0.407497	-5.445260E-7
860.000000	0.392310	-5.195117E-7
861.000000	0.376226	-4.829151E-7
862.000000	0.364206	-4.470342E-7
863.000000	0.348803	-4.085418E-7
864.000000	0.333613	-3.836104E-7
865.000000	0.322855	-3.689078E-7
866.000000	0.310171	-3.492043E-7
867.000000	0.294457	-3.335370E-7
868.000000	0.283331	-3.133379E-7
869.000000	0.273288	-2.875898E-7
870.000000	0.263701	-2.690059E-7
871.000000	0.251043	-2.508619E-7
872.000000	0.241401	-2.378836E-7
873.000000	0.231092	-2.288954E-7
874.000000	0.220227	-2.159684E-7
875.000000	0.211608	-2.026325E-7
876.000000	0.203816	-1.891128E-7
877.000000	0.195724	-1.754381E-7
878.000000	0.186331	-1.645021E-7
879.000000	0.180390	-1.572361E-7
880.000000	0.171983	-1.482426E-7
881.000000	0.164296	-1.414064E-7
882.000000	0.157401	-1.333729E-7
883.000000	0.150523	-1.255669E-7
884.000000	0.144123	-1.187332E-7
885.000000	0.138386	-1.110121E-7
886.000000	0.132717	-1.042422E-7
887.000000	0.127322	-1.002142E-7
888.000000	0.121631	-9.566993E-8
889.000000	0.117262	-9.176227E-8
890.000000	0.112275	-8.679918E-8
891.000000	0.107527	-8.185814E-8
892.000000	0.102869	-7.701264E-8
893.000000	0.098331	-7.332355E-8
894.000000	0.093925	-7.121147E-8
895.000000	0.090238	-6.820424E-8
896.000000	0.086250	-6.437651E-8
897.000000	0.082720	-6.183060E-8
898.000000	0.078827	-5.838515E-8
899.000000	0.075911	-5.606468E-8
900.000000	0.072551	-5.346396E-8
901.000000	0.069519	-5.102105E-8
902.000000	0.066332	-4.897654E-8
903.000000	0.063487	-4.647228E-8
904.000000	0.060857	-4.429023E-8
905.000000	0.058259	-4.291141E-8
906.000000	0.055742	-4.075182E-8
907.000000	0.053294	-3.887455E-8
908.000000	0.050769	-3.713117E-8
909.000000	0.048742	-3.536115E-8
910.000000	0.046608	-3.399591E-8
911.000000	0.044577	-3.245282E-8
912.000000	0.042641	-3.112017E-8
913.000000	0.040805	-3.007313E-8
914.000000	0.039044	-2.859370E-8
915.000000	0.037278	-2.726133E-8
916.000000	0.035762	-2.588350E-8
917.000000	0.034141	-2.440574E-8
918.000000	0.032622	-2.366306E-8
919.000000	0.031167	-2.264072E-8
920.000000	0.029834	-2.134258E-8
921.000000	0.028586	-2.059252E-8
922.000000	0.027323	-1.955611E-8
923.000000	0.026076	-1.847250E-8
924.000000	0.025050	-1.780379E-8
925.000000	0.023857	-1.682178E-8
926.000000	0.022744	-1.615423E-8
927.000000	0.021792	-1.552949E-8
928.000000	0.020860	-1.474364E-8
929.000000	0.019931	-1.412057E-8
930.000000	0.019104	-1.320479E-8
931.000000	0.018255	-1.240334E-8
932.000000	0.017463	-1.185826E-8
933.000000	0.016753	-1.122026E-8
934.000000	0.015913	-1.069924E-8
935.000000	0.015302	-1.025839E-8
936.000000	0.014572	-9.652706E-9
937.000000	0.013962	-9.293687E-9
938.000000	0.013415	-8.788467E-9
939.000000	0.012821	-8.300914E-9
940.000000	0.012278	-8.046738E-9
941.000000	0.011720	-7.641495E-9
942.000000	0.011204	-7.322378E-9
943.000000	0.010749	-7.008086E-9
944.000000	0.010260	-6.526141E-9
945.000000	0.009827	-6.175277E-9
946.000000	0.009433	-5.844770E-9
947.000000	0.008977	-5.487351E-9
948.000000	0.008615	-5.313036E-9
949.000000	0.008269	-5.060877E-9
950.000000	0.007898	-4.814861E-9
951.000000	0.007574	-4.597590E-9
952.000000	0.007267	-4.332468E-9
953.000000	0.006932	-4.142746E-9
954.000000	0.006666	-3.979507E-9
955.000000	0.006383	-3.769689E-9
956.000000	0.006114	-3.632362E-9
957.000000	0.005869	-3.454248E-9
958.000000	0.005616	-3.249208E-9
959.000000	0.005410	-3.091495E-9
960.000000	0.005190	-2.889657E-9
961.000000	0.004974	-2.749323E-9
962.000000	0.004777	-2.632091E-9
963.000000	0.004569	-2.507267E-9
964.000000	0.004395	-2.431814E-9
965.000000	0.004220	-2.304940E-9
966.000000	0.004041	-2.177206E-9
967.000000	0.003904	-2.100440E-9
968.000000	0.003753	-1.996935E-9
969.000000	0.003587	-1.907509E-9
970.000000	0.003452	-1.831101E-9
971.000000	0.003334	-1.737776E-9
972.000000	0.003203	-1.649876E-9
973.000000	0.003090	-1.562480E-9
974.000000	0.002979	-1.473091E-9
975.000000	0.002865	-1.400999E-9
976.000000	0.002768	-1.337928E-9
977.000000	0.002665	-1.286608E-9
978.000000	0.002560	-1.241740E-9
979.000000	0.002471	-1.190161E-9
980.000000	0.002384	-1.144895E-9
981.000000	0.002298	-1.094219E-9
982.000000	0.002223	-1.053422E-9
983.000000	0.002136	-1.019653E-9
984.000000	0.002067	-9.797301E-10
985.000000	0.001994	-9.365746E-10
986.000000	0.001934	-8.978602E-10
987.000000	0.001875	-8.515543E-10
988.000000	0.001818	-8.121765E-10
989.000000	0.001768	-7.804131E-10
990.000000	0.001707	-7.455055E-10
991.000000	0.001647	-7.215378E-10
992.000000	0.001596	-7.031716E-10
993.000000	0.001539	-6.831868E-10
994.000000	0.001487	-6.693490E-10
995.000000	0.001445	-6.511169E-10
996.000000	0.001395	-6.303880E-10
997.000000	0.001351	-6.092886E-10
998.000000	0.001314	-5.918436E-10
999.000000	0.001276	-5.766274E-10
1000.000000	0.001234	-5.541729E-10
1001.000000	0.001196	-5.341527E-10
1002.000000	0.001172	-5.207781E-10
1003.000000	0.001131	-4.976023E-10
1004.000000	0.001102	-4.802981E-10
1005.000000	0.001079	-4.706722E-10
1006.000000	0.001053	-4.616976E-10
1007.000000	0.001013	-4.499069E-10
1008.000000	0.000980	-4.392253E-10
1009.000000	0.000946	-4.231469E-10
1010.000000	0.000924	-4.159198E-10
1011.000000	0.000908	-4.069511E-10
1012.000000	0.000878	-3.953601E-10
1013.000000	0.000849	-3.890310E-10
1014.000000	0.000822	-3.782671E-10
1015.000000	0.000803	-3.686937E-10
1016.000000	0.000783	-3.617603E-10
1017.000000	0.000760	-3.555251E-10
1018.000000	0.000733	-3.510492E-10
1019.000000	0.000701	-3.478232E-10
1020.000000	0.000677	-3.472367E-10
1021.000000	0.000650	-3.421803E-10
1022.000000	0.000634	-3.335456E-10
1023.000000	0.000615	-3.246765E-10
1024.000000	0.000592	-3.204062E-10
1025.000000	0.000570	-3.209283E-10
1026.000000	0.000544	-3.211101E-10
1027.000000	0.000522	-3.231393E-10
1028.000000	0.000499	-3.257617E-10
1029.000000	0.000476	-3.275625E-10
1030.000000	0.000459	-3.285303E-10
1031.000000	0.000444	-3.257030E-10
1032.000000	0.000431	-3.210631E-10
1033.000000	0.000421	-3.119006E-10
1034.000000	0.000421	-3.012242E-10
1035.000000	0.000420	-2.856332E-10
1036.000000	0.000421	-2.682348E-10
1037.000000	0.000421	-2.532477E-10
1038.000000	0.000414	-2.392047E-10
1039.000000	0.000412	-2.299719E-10
1040.000000	0.000406	-2.227277E-10
1041.000000	0.000398	-2.163398E-10
1042.000000	0.000392	-2.107026E-10
1043.000000	0.000387	-2.068136E-10
1044.000000	0.000378	-2.021208E-10
1045.000000	0.000369	-1.985251E-10
1046.000000	0.000357	-1.955100E-10
1047.000000	0.000343	-1.935155E-10
1048.000000	0.000331	-1.934979E-10
1049.000000	0.000319	-1.923895E-10
1050.000000	0.000308	-1.906942E-10
1051.000000	0.000298	-1.883537E-10
1052.000000	0.000286	-1.863007E-10
1053.000000	0.000274	-1.859018E-10
1054.000000	0.000264	-1.847754E-10
1055.000000	0.000253	-1.845349E-10
1056.000000	0.000240	-1.862476E-10
1057.000000	0.000228	-1.874504E-10
1058.000000	0.000218	-1.895795E-10
1059.000000	0.000206	-1.945186E-10
1060.000000	0.000192	-2.064381E-10
1061.000000	0.000176	-2.230618E-10
1062.000000	0.000160	-2.500098E-10
1063.000000	0.000140	-3.460985E-10
1064.000000	0.000117	-5.416959E-10
1065.000000	0.000114	-5.988820E-10
1066.000000	0.000117	-4.173221E-10
1067.000000	0.000128	-2.644046E-10
1068.000000	0.000136	-2.091833E-10
1069.000000	0.000148	-1.769329E-10
1070.000000	0.000162	-1.557979E-10
1071.000000	0.000167	-1.426995E-10
1072.000000	0.000175	-1.359421E-10
1073.000000	0.000178	-1.294955E-10
1074.000000	0.000182	-1.235884E-10
1075.000000	0.000184	-1.186554E-10
1076.000000	0.000187	-1.153823E-10
1077.000000	0.000187	-1.115636E-10
1078.000000	0.000186	-1.081554E-10
1079.000000	0.000187	-1.055687E-10
1080.000000	0.000187	-1.037386E-10
1081.000000	0.000185	-1.000079E-10
1082.000000	0.000184	-9.789031E-11
1083.000000	0.000183	-9.642970E-11
1084.000000	0.000183	-9.433562E-11
1085.000000	0.000181	-9.256407E-11
1086.000000	0.000179	-9.123251E-11
1087.000000	0.000180	-8.980111E-11
1088.000000	0.000177	-8.774234E-11
1089.000000	0.000175	-8.673331E-11
1090.000000	0.000174	-8.584175E-11
1091.000000	0.000174	-8.463343E-11
1092.000000	0.000174	-8.358927E-11
1093.000000	0.000173	-8.228704E-11
1094.000000	0.000170	-8.002285E-11
1095.000000	0.000172	-7.894349E-11
1096.000000	0.000170	-7.757679E-11
1097.000000	0.000169	-7.757676E-11
1098.000000	0.000168	-7.667930E-11
1099.000000	0.000161	-7.554130E-11
1100.000000	0.000159	-7.647398E-11
