Wavelength (nm)	EQE (%)	Current (A)	Dark Current (A) -> 	-25.314258000E-12	
400.000000	27.951029	-6.049992E-7
401.000000	29.786032	-8.922791E-7
402.000000	29.304058	-1.333659E-6
403.000000	29.630817	-2.004793E-6
404.000000	29.721408	-2.700487E-6
405.000000	29.590465	-3.591908E-6
406.000000	29.925237	-4.983466E-6
407.000000	29.376317	-5.317166E-6
408.000000	29.467697	-5.800644E-6
409.000000	29.365810	-6.462268E-6
410.000000	29.691966	-6.553658E-6
411.000000	29.749905	-8.717917E-6
412.000000	29.461710	-1.004593E-5
413.000000	29.563358	-1.308753E-5
414.000000	29.761243	-1.534406E-5
415.000000	29.369255	-1.510517E-5
416.000000	29.143687	-1.430579E-5
417.000000	29.168634	-1.281129E-5
418.000000	27.934269	-8.346729E-6
419.000000	29.273462	-6.376287E-6
420.000000	29.258463	-6.496480E-6
421.000000	29.097293	-7.043428E-6
422.000000	28.796269	-6.314209E-6
423.000000	29.150307	-6.646234E-6
424.000000	29.054460	-7.391091E-6
425.000000	28.613003	-7.859006E-6
426.000000	28.808222	-8.410233E-6
427.000000	28.922754	-8.786676E-6
428.000000	29.464778	-9.841385E-6
429.000000	29.106376	-1.084725E-5
430.000000	29.224746	-1.181824E-5
431.000000	29.755022	-1.225160E-5
432.000000	29.195009	-1.188309E-5
433.000000	29.351207	-1.214377E-5
434.000000	29.290333	-1.357767E-5
435.000000	29.467122	-1.394669E-5
436.000000	29.480696	-1.404941E-5
437.000000	29.750041	-1.528488E-5
438.000000	29.860177	-1.597759E-5
439.000000	29.827779	-1.569202E-5
440.000000	30.007908	-1.565075E-5
441.000000	30.355900	-1.738171E-5
442.000000	30.405265	-1.699878E-5
443.000000	30.287977	-1.620374E-5
444.000000	30.761183	-1.623579E-5
445.000000	30.513978	-1.601204E-5
446.000000	31.361174	-1.600297E-5
447.000000	31.501922	-1.797075E-5
448.000000	31.755000	-2.044305E-5
449.000000	31.637613	-1.898056E-5
450.000000	32.208502	-1.788742E-5
451.000000	32.732556	-1.991443E-5
452.000000	32.747565	-2.101397E-5
453.000000	33.268177	-1.977722E-5
454.000000	33.462572	-1.743270E-5
455.000000	33.592345	-1.839164E-5
456.000000	34.346522	-2.204901E-5
457.000000	34.351756	-2.438725E-5
458.000000	34.328902	-2.484869E-5
459.000000	34.692667	-2.375327E-5
460.000000	35.236630	-2.249217E-5
461.000000	36.053223	-2.161148E-5
462.000000	35.411728	-2.072542E-5
463.000000	35.633830	-2.095383E-5
464.000000	35.779745	-2.098722E-5
465.000000	36.585960	-2.168553E-5
466.000000	36.425527	-2.023678E-5
467.000000	36.623528	-1.650203E-5
468.000000	37.876174	-1.658179E-5
469.000000	38.216436	-2.167124E-5
470.000000	36.860775	-2.221205E-5
471.000000	36.732293	-1.691183E-5
472.000000	38.194690	-1.629409E-5
473.000000	38.468571	-2.257122E-5
474.000000	38.132337	-2.329469E-5
475.000000	37.270088	-1.763210E-5
476.000000	38.575005	-1.695716E-5
477.000000	38.553607	-2.001352E-5
478.000000	39.014075	-1.902094E-5
479.000000	39.692656	-1.871231E-5
480.000000	39.639537	-2.226503E-5
481.000000	39.340330	-2.185157E-5
482.000000	38.649657	-1.562563E-5
483.000000	40.134416	-1.651133E-5
484.000000	40.000311	-2.096092E-5
485.000000	38.949455	-1.727610E-5
486.000000	40.274210	-1.580819E-5
487.000000	40.260281	-1.880512E-5
488.000000	40.239440	-1.874049E-5
489.000000	40.400299	-1.594743E-5
490.000000	40.978599	-1.798121E-5
491.000000	40.747775	-1.983053E-5
492.000000	40.965134	-2.199298E-5
493.000000	40.276856	-2.301849E-5
494.000000	40.570605	-2.112785E-5
495.000000	40.884654	-2.064667E-5
496.000000	40.466719	-2.343014E-5
497.000000	40.530202	-2.516324E-5
498.000000	40.539633	-2.312826E-5
499.000000	40.999217	-2.260722E-5
500.000000	41.050297	-2.516767E-5
501.000000	41.040479	-3.018478E-5
502.000000	40.058106	-2.823599E-5
503.000000	40.891147	-2.669714E-5
504.000000	39.686948	-3.130210E-5
505.000000	40.329962	-3.533212E-5
506.000000	39.932466	-3.243542E-5
507.000000	39.450346	-2.571745E-5
508.000000	40.111938	-2.558077E-5
509.000000	39.557001	-2.584169E-5
510.000000	39.336186	-2.247880E-5
511.000000	40.447202	-2.052934E-5
512.000000	41.382108	-2.340215E-5
513.000000	41.316501	-2.667997E-5
514.000000	40.102291	-3.201911E-5
515.000000	40.554958	-3.705487E-5
516.000000	41.286358	-4.804770E-5
517.000000	40.448163	-5.646874E-5
518.000000	40.278681	-4.851543E-5
519.000000	40.009744	-3.924312E-5
520.000000	39.846579	-3.707765E-5
521.000000	39.059278	-2.792016E-5
522.000000	39.074330	-2.203774E-5
523.000000	39.775920	-2.050487E-5
524.000000	41.030882	-2.775144E-5
525.000000	41.030905	-3.886192E-5
526.000000	40.403662	-4.265215E-5
527.000000	40.730365	-4.650307E-5
528.000000	40.464805	-5.246355E-5
529.000000	40.222333	-4.993908E-5
530.000000	39.443987	-3.694747E-5
531.000000	38.794798	-2.732185E-5
532.000000	39.735117	-2.224041E-5
533.000000	39.960827	-2.362510E-5
534.000000	40.019975	-2.568048E-5
535.000000	40.911871	-3.293640E-5
536.000000	40.806532	-4.745977E-5
537.000000	39.730598	-4.658052E-5
538.000000	39.602572	-3.477585E-5
539.000000	40.221656	-3.474138E-5
540.000000	39.385222	-2.822639E-5
541.000000	39.756488	-2.481959E-5
542.000000	40.053919	-2.603431E-5
543.000000	40.453181	-3.075060E-5
544.000000	40.494082	-4.216903E-5
545.000000	40.064919	-4.513546E-5
546.000000	39.922047	-4.020282E-5
547.000000	40.256244	-4.044847E-5
548.000000	39.722675	-3.215395E-5
549.000000	39.500934	-2.329248E-5
550.000000	40.250603	-2.347084E-5
551.000000	40.162108	-2.584546E-5
552.000000	41.030849	-3.522861E-5
553.000000	40.273703	-4.284054E-5
554.000000	40.041106	-4.415779E-5
555.000000	40.058015	-4.481096E-5
556.000000	39.416562	-3.878606E-5
557.000000	38.653823	-2.983319E-5
558.000000	40.152416	-2.923415E-5
559.000000	40.256778	-3.238581E-5
560.000000	40.850920	-3.940796E-5
561.000000	39.944518	-4.609311E-5
562.000000	40.068793	-4.165616E-5
563.000000	40.311282	-4.136952E-5
564.000000	39.455124	-3.451537E-5
565.000000	39.586690	-2.687846E-5
566.000000	40.033006	-2.698721E-5
567.000000	39.930040	-2.864949E-5
568.000000	40.116495	-3.468968E-5
569.000000	39.401289	-3.942207E-5
570.000000	39.237677	-3.716127E-5
571.000000	39.653021	-3.504091E-5
572.000000	39.165381	-3.136895E-5
573.000000	39.064797	-2.551845E-5
574.000000	39.629214	-2.614695E-5
575.000000	39.631860	-3.048587E-5
576.000000	39.940006	-3.941716E-5
577.000000	39.245037	-4.322531E-5
578.000000	38.987471	-4.516848E-5
579.000000	38.880349	-4.194975E-5
580.000000	38.817832	-3.432754E-5
581.000000	38.803346	-3.082834E-5
582.000000	38.645709	-2.921254E-5
583.000000	38.753059	-3.246337E-5
584.000000	38.857779	-3.906905E-5
585.000000	38.294285	-4.095655E-5
586.000000	38.087372	-3.897786E-5
587.000000	38.341723	-3.702492E-5
588.000000	38.037930	-3.080375E-5
589.000000	38.285487	-2.961651E-5
590.000000	37.950264	-3.044201E-5
591.000000	38.421320	-4.420200E-5
592.000000	38.557586	-4.471615E-5
593.000000	38.537149	-4.450468E-5
594.000000	38.502185	-4.258460E-5
595.000000	38.559014	-4.162945E-5
596.000000	38.462752	-4.192485E-5
597.000000	38.346245	-4.317408E-5
598.000000	37.947609	-4.663124E-5
599.000000	38.282198	-5.020824E-5
600.000000	38.177251	-5.215757E-5
601.000000	38.083933	-5.395093E-5
602.000000	37.814484	-5.319516E-5
603.000000	37.989824	-5.218455E-5
604.000000	37.746282	-4.869585E-5
605.000000	37.842490	-4.652923E-5
606.000000	37.959793	-4.719292E-5
607.000000	37.969098	-4.788653E-5
608.000000	37.706903	-5.204491E-5
609.000000	38.012060	-5.666434E-5
610.000000	38.066875	-5.945377E-5
611.000000	38.140351	-6.152591E-5
612.000000	38.015373	-6.043970E-5
613.000000	38.057388	-5.803720E-5
614.000000	37.973160	-5.396121E-5
615.000000	37.915365	-5.100663E-5
616.000000	38.335250	-5.172873E-5
617.000000	38.353471	-5.441304E-5
618.000000	38.557349	-5.989493E-5
619.000000	38.909591	-6.441131E-5
620.000000	38.750138	-6.595083E-5
621.000000	38.892970	-6.788807E-5
622.000000	38.864809	-6.907017E-5
623.000000	38.995639	-7.101763E-5
624.000000	39.131351	-7.303870E-5
625.000000	38.251902	-7.571933E-5
626.000000	39.556034	-7.371566E-5
627.000000	38.104844	-7.145017E-5
628.000000	38.054467	-7.122292E-5
629.000000	38.553560	-7.173594E-5
630.000000	38.553021	-7.289302E-5
631.000000	38.688566	-7.626913E-5
632.000000	38.822205	-8.005757E-5
633.000000	38.759098	-8.259802E-5
634.000000	38.794648	-8.472431E-5
635.000000	38.586826	-8.405907E-5
636.000000	38.901422	-8.333478E-5
637.000000	38.819026	-8.327117E-5
638.000000	38.767377	-8.312588E-5
639.000000	38.746438	-8.365708E-5
640.000000	38.861287	-8.246490E-5
641.000000	38.717543	-8.060478E-5
642.000000	38.697676	-8.072489E-5
643.000000	38.611426	-8.090155E-5
644.000000	38.559112	-8.482038E-5
645.000000	38.686285	-8.912053E-5
646.000000	38.718998	-9.199944E-5
647.000000	38.640698	-9.178709E-5
648.000000	38.496798	-8.745300E-5
649.000000	38.581310	-8.459929E-5
650.000000	38.436436	-8.203942E-5
651.000000	38.529114	-8.386278E-5
652.000000	38.351047	-8.823740E-5
653.000000	38.317781	-9.110766E-5
654.000000	38.242911	-9.337385E-5
655.000000	38.146840	-8.970116E-5
656.000000	38.003849	-8.521260E-5
657.000000	37.856448	-8.343439E-5
658.000000	37.922204	-8.196883E-5
659.000000	37.916019	-8.622465E-5
660.000000	37.758413	-9.348751E-5
661.000000	37.774025	-9.696489E-5
662.000000	37.602861	-9.828388E-5
663.000000	37.726891	-9.316097E-5
664.000000	37.417667	-8.296034E-5
665.000000	37.192962	-7.844887E-5
666.000000	37.167959	-8.088443E-5
667.000000	37.322139	-8.735737E-5
668.000000	37.227012	-9.417197E-5
669.000000	37.105249	-9.896354E-5
670.000000	37.070261	-9.616686E-5
671.000000	36.907617	-8.804956E-5
672.000000	36.780520	-8.551039E-5
673.000000	37.019062	-8.403581E-5
674.000000	36.871747	-8.449006E-5
675.000000	36.841055	-9.222362E-5
676.000000	36.764868	-9.557469E-5
677.000000	36.997434	-9.511942E-5
678.000000	37.011672	-9.503127E-5
679.000000	36.811958	-8.798687E-5
680.000000	36.978561	-8.360989E-5
681.000000	37.301652	-8.809233E-5
682.000000	37.372511	-9.447763E-5
683.000000	37.230245	-9.754075E-5
684.000000	37.463825	-9.984146E-5
685.000000	37.311970	-9.751822E-5
686.000000	37.523087	-8.841831E-5
687.000000	37.792237	-8.614528E-5
688.000000	37.934545	-9.298651E-5
689.000000	37.835105	-9.600983E-5
690.000000	38.125697	-0.000102
691.000000	38.231330	-0.000104
692.000000	38.263102	-9.885481E-5
693.000000	38.878308	-9.364916E-5
694.000000	38.809649	-8.883898E-5
695.000000	38.682140	-8.887778E-5
696.000000	38.993995	-9.423760E-5
697.000000	39.183512	-0.000102
698.000000	39.329081	-0.000107
699.000000	39.398421	-0.000104
700.000000	39.692026	-0.000100
701.000000	39.659578	-9.818251E-5
702.000000	39.797719	-9.345111E-5
703.000000	39.934638	-9.710556E-5
704.000000	39.896710	-0.000107
705.000000	40.161480	-0.000109
706.000000	40.245491	-0.000105
707.000000	40.620754	-0.000106
708.000000	40.649923	-0.000103
709.000000	40.389128	-9.283337E-5
710.000000	40.244773	-9.419913E-5
711.000000	40.328600	-0.000111
712.000000	40.214174	-0.000117
713.000000	40.413305	-0.000111
714.000000	40.362841	-0.000101
715.000000	40.776676	-9.436851E-5
716.000000	40.724165	-9.496175E-5
717.000000	40.708676	-9.818655E-5
718.000000	40.300742	-0.000103
719.000000	39.754324	-0.000108
720.000000	39.872277	-0.000107
721.000000	39.688357	-0.000106
722.000000	39.441874	-0.000100
723.000000	39.124898	-9.331958E-5
724.000000	39.014205	-9.391060E-5
725.000000	38.611453	-9.759953E-5
726.000000	38.556181	-0.000101
727.000000	37.849972	-0.000102
728.000000	37.837647	-9.989616E-5
729.000000	37.098618	-9.391063E-5
730.000000	36.653076	-8.866120E-5
731.000000	36.576558	-8.652724E-5
732.000000	35.779078	-8.649728E-5
733.000000	35.168902	-8.914787E-5
734.000000	34.482606	-9.185342E-5
735.000000	33.845306	-8.879888E-5
736.000000	33.524937	-8.579112E-5
737.000000	32.758186	-8.202286E-5
738.000000	31.988979	-7.724136E-5
739.000000	31.321680	-7.526874E-5
740.000000	30.536414	-7.490938E-5
741.000000	29.965061	-7.525293E-5
742.000000	29.094163	-7.479131E-5
743.000000	28.317640	-7.136194E-5
744.000000	27.520174	-6.614955E-5
745.000000	26.707198	-6.244026E-5
746.000000	25.827707	-5.913533E-5
747.000000	24.929786	-5.730147E-5
748.000000	24.202458	-5.755818E-5
749.000000	23.355413	-5.586842E-5
750.000000	22.422910	-5.353398E-5
751.000000	21.580058	-5.041639E-5
752.000000	20.768278	-4.613439E-5
753.000000	19.841341	-4.290714E-5
754.000000	18.954937	-4.020930E-5
755.000000	17.999187	-3.867780E-5
756.000000	17.174519	-3.766935E-5
757.000000	16.415293	-3.593975E-5
758.000000	15.549738	-3.351957E-5
759.000000	14.777594	-3.120946E-5
760.000000	14.049767	-2.850230E-5
761.000000	13.196883	-2.591066E-5
762.000000	12.456093	-2.440162E-5
763.000000	11.750202	-2.334991E-5
764.000000	11.106440	-2.244061E-5
765.000000	10.448022	-2.105700E-5
766.000000	9.850858	-1.942279E-5
767.000000	9.239294	-1.778377E-5
768.000000	8.670722	-1.618985E-5
769.000000	8.131195	-1.491531E-5
770.000000	7.598888	-1.401828E-5
771.000000	7.112005	-1.331190E-5
772.000000	6.668720	-1.262042E-5
773.000000	6.250602	-1.173354E-5
774.000000	5.835461	-1.065780E-5
775.000000	5.458211	-9.584161E-6
776.000000	5.110248	-8.701177E-6
777.000000	4.776095	-8.159706E-6
778.000000	4.463965	-7.848541E-6
779.000000	4.176154	-7.551132E-6
780.000000	3.912688	-7.141038E-6
781.000000	3.680926	-6.549057E-6
782.000000	3.441964	-5.889326E-6
783.000000	3.229094	-5.341323E-6
784.000000	3.025962	-4.976615E-6
785.000000	2.833844	-4.793743E-6
786.000000	2.669417	-4.581768E-6
787.000000	2.505524	-4.332573E-6
788.000000	2.366682	-4.036528E-6
789.000000	2.229544	-3.644531E-6
790.000000	2.092467	-3.311167E-6
791.000000	1.973926	-3.067902E-6
792.000000	1.852767	-2.936752E-6
793.000000	1.744257	-2.867057E-6
794.000000	1.634436	-2.801702E-6
795.000000	1.558389	-2.697915E-6
796.000000	1.473695	-2.445383E-6
797.000000	1.394607	-2.233565E-6
798.000000	1.318030	-2.093289E-6
799.000000	1.244854	-2.006688E-6
800.000000	1.179107	-1.980219E-6
801.000000	1.121862	-1.971800E-6
802.000000	1.066183	-1.896512E-6
803.000000	1.018043	-1.759747E-6
804.000000	0.965629	-1.584163E-6
805.000000	0.918539	-1.453740E-6
806.000000	0.874870	-1.376912E-6
807.000000	0.830104	-1.345824E-6
808.000000	0.794178	-1.356556E-6
809.000000	0.760405	-1.321643E-6
810.000000	0.728586	-1.231234E-6
811.000000	0.694206	-1.137651E-6
812.000000	0.663459	-1.027843E-6
813.000000	0.631552	-9.495822E-7
814.000000	0.603062	-9.331014E-7
815.000000	0.574967	-9.267798E-7
816.000000	0.551228	-9.304849E-7
817.000000	0.527860	-8.912667E-7
818.000000	0.508385	-8.096521E-7
819.000000	0.486429	-7.327702E-7
820.000000	0.466500	-6.816250E-7
821.000000	0.446959	-6.580983E-7
822.000000	0.426245	-6.623847E-7
823.000000	0.409539	-6.729496E-7
824.000000	0.395206	-6.582697E-7
825.000000	0.379951	-6.192642E-7
826.000000	0.364317	-5.644696E-7
827.000000	0.349803	-5.252091E-7
828.000000	0.335911	-5.092447E-7
829.000000	0.323632	-5.001459E-7
830.000000	0.309092	-4.969563E-7
831.000000	0.296825	-4.909480E-7
832.000000	0.285613	-4.668403E-7
833.000000	0.274664	-4.320157E-7
834.000000	0.263870	-3.951016E-7
835.000000	0.253720	-3.678774E-7
836.000000	0.242753	-3.578988E-7
837.000000	0.234279	-3.573338E-7
838.000000	0.224656	-3.511621E-7
839.000000	0.215440	-3.396966E-7
840.000000	0.208306	-3.234444E-7
841.000000	0.201060	-2.986409E-7
842.000000	0.191592	-2.775431E-7
843.000000	0.184095	-2.704294E-7
844.000000	0.178004	-2.671703E-7
845.000000	0.170493	-2.611860E-7
846.000000	0.164008	-2.526811E-7
847.000000	0.158739	-2.406918E-7
848.000000	0.152307	-2.215412E-7
849.000000	0.146664	-2.044187E-7
850.000000	0.140795	-1.964001E-7
851.000000	0.135463	-1.917947E-7
852.000000	0.130223	-1.862500E-7
853.000000	0.125149	-1.816102E-7
854.000000	0.120728	-1.723464E-7
855.000000	0.115890	-1.594512E-7
856.000000	0.111591	-1.487580E-7
857.000000	0.107660	-1.401148E-7
858.000000	0.102984	-1.349553E-7
859.000000	0.098715	-1.319106E-7
860.000000	0.095448	-1.263964E-7
861.000000	0.091765	-1.177867E-7
862.000000	0.088334	-1.084235E-7
863.000000	0.085024	-9.958583E-8
864.000000	0.081680	-9.392080E-8
865.000000	0.078980	-9.024576E-8
866.000000	0.075918	-8.547154E-8
867.000000	0.072612	-8.224892E-8
868.000000	0.070116	-7.754224E-8
869.000000	0.067573	-7.110962E-8
870.000000	0.065138	-6.644871E-8
871.000000	0.062357	-6.231217E-8
872.000000	0.059972	-5.909846E-8
873.000000	0.057711	-5.716281E-8
874.000000	0.055569	-5.449466E-8
875.000000	0.053261	-5.100164E-8
876.000000	0.051271	-4.757231E-8
877.000000	0.049387	-4.426844E-8
878.000000	0.047394	-4.184175E-8
879.000000	0.045507	-3.966587E-8
880.000000	0.043787	-3.774297E-8
881.000000	0.041954	-3.610917E-8
882.000000	0.040142	-3.401380E-8
883.000000	0.038422	-3.205167E-8
884.000000	0.037013	-3.049232E-8
885.000000	0.035628	-2.858019E-8
886.000000	0.034212	-2.687164E-8
887.000000	0.032870	-2.587197E-8
888.000000	0.031712	-2.494325E-8
889.000000	0.030349	-2.374930E-8
890.000000	0.029223	-2.259260E-8
891.000000	0.028182	-2.145428E-8
892.000000	0.026994	-2.020885E-8
893.000000	0.025892	-1.930715E-8
894.000000	0.024835	-1.882954E-8
895.000000	0.023876	-1.804578E-8
896.000000	0.022945	-1.712630E-8
897.000000	0.021976	-1.642648E-8
898.000000	0.021134	-1.565362E-8
899.000000	0.020296	-1.499009E-8
900.000000	0.019492	-1.436418E-8
901.000000	0.018669	-1.370122E-8
902.000000	0.017917	-1.322944E-8
903.000000	0.017205	-1.259426E-8
904.000000	0.016527	-1.202831E-8
905.000000	0.015843	-1.166914E-8
906.000000	0.015128	-1.105940E-8
907.000000	0.014560	-1.062086E-8
908.000000	0.013935	-1.019198E-8
909.000000	0.013406	-9.725632E-9
910.000000	0.012860	-9.380130E-9
911.000000	0.012327	-8.974577E-9
912.000000	0.011829	-8.632814E-9
913.000000	0.011330	-8.349909E-9
914.000000	0.010895	-7.979310E-9
915.000000	0.010429	-7.627005E-9
916.000000	0.010042	-7.268042E-9
917.000000	0.009622	-6.878546E-9
918.000000	0.009216	-6.685114E-9
919.000000	0.008828	-6.412676E-9
920.000000	0.008470	-6.058862E-9
921.000000	0.008112	-5.843389E-9
922.000000	0.007796	-5.579643E-9
923.000000	0.007463	-5.287164E-9
924.000000	0.007180	-5.103236E-9
925.000000	0.006862	-4.838450E-9
926.000000	0.006572	-4.668058E-9
927.000000	0.006322	-4.505016E-9
928.000000	0.006053	-4.278443E-9
929.000000	0.005814	-4.118835E-9
930.000000	0.005586	-3.861466E-9
931.000000	0.005345	-3.631746E-9
932.000000	0.005131	-3.483997E-9
933.000000	0.004940	-3.308819E-9
934.000000	0.004713	-3.168982E-9
935.000000	0.004541	-3.044468E-9
936.000000	0.004339	-2.874004E-9
937.000000	0.004156	-2.766314E-9
938.000000	0.004011	-2.627639E-9
939.000000	0.003849	-2.491985E-9
940.000000	0.003696	-2.422139E-9
941.000000	0.003544	-2.310601E-9
942.000000	0.003400	-2.222090E-9
943.000000	0.003266	-2.129491E-9
944.000000	0.003127	-1.988875E-9
945.000000	0.003002	-1.886152E-9
946.000000	0.002895	-1.793424E-9
947.000000	0.002768	-1.692050E-9
948.000000	0.002668	-1.645271E-9
949.000000	0.002571	-1.573789E-9
950.000000	0.002465	-1.502436E-9
951.000000	0.002371	-1.438984E-9
952.000000	0.002280	-1.359368E-9
953.000000	0.002183	-1.304772E-9
954.000000	0.002110	-1.259290E-9
955.000000	0.002020	-1.192988E-9
956.000000	0.001948	-1.157612E-9
957.000000	0.001872	-1.102015E-9
958.000000	0.001806	-1.044694E-9
959.000000	0.001739	-9.935125E-10
960.000000	0.001682	-9.365155E-10
961.000000	0.001626	-8.987570E-10
962.000000	0.001566	-8.628163E-10
963.000000	0.001500	-8.233159E-10
964.000000	0.001446	-7.998932E-10
965.000000	0.001410	-7.699117E-10
966.000000	0.001352	-7.285407E-10
967.000000	0.001308	-7.037572E-10
968.000000	0.001267	-6.739472E-10
969.000000	0.001217	-6.473808E-10
970.000000	0.001179	-6.255826E-10
971.000000	0.001143	-5.955733E-10
972.000000	0.001104	-5.684911E-10
973.000000	0.001070	-5.410506E-10
974.000000	0.001042	-5.153813E-10
975.000000	0.001011	-4.943577E-10
976.000000	0.000980	-4.737163E-10
977.000000	0.000951	-4.589100E-10
978.000000	0.000914	-4.433540E-10
979.000000	0.000888	-4.278686E-10
980.000000	0.000866	-4.158023E-10
981.000000	0.000841	-4.004573E-10
982.000000	0.000812	-3.848777E-10
983.000000	0.000786	-3.753633E-10
984.000000	0.000764	-3.624231E-10
985.000000	0.000743	-3.492307E-10
986.000000	0.000724	-3.362438E-10
987.000000	0.000708	-3.217022E-10
988.000000	0.000696	-3.108856E-10
989.000000	0.000684	-3.019519E-10
990.000000	0.000664	-2.900442E-10
991.000000	0.000641	-2.806410E-10
992.000000	0.000626	-2.757490E-10
993.000000	0.000612	-2.717017E-10
994.000000	0.000590	-2.654310E-10
995.000000	0.000574	-2.587675E-10
996.000000	0.000562	-2.540922E-10
997.000000	0.000546	-2.461323E-10
998.000000	0.000533	-2.401491E-10
999.000000	0.000521	-2.352744E-10
1000.000000	0.000513	-2.303297E-10
1001.000000	0.000496	-2.212666E-10
1002.000000	0.000487	-2.164217E-10
1003.000000	0.000478	-2.101452E-10
1004.000000	0.000471	-2.051356E-10
1005.000000	0.000455	-1.987302E-10
1006.000000	0.000447	-1.963018E-10
1007.000000	0.000435	-1.931870E-10
1008.000000	0.000425	-1.904240E-10
1009.000000	0.000415	-1.855260E-10
1010.000000	0.000406	-1.825346E-10
1011.000000	0.000399	-1.788978E-10
1012.000000	0.000390	-1.754312E-10
1013.000000	0.000376	-1.724512E-10
1014.000000	0.000369	-1.699933E-10
1015.000000	0.000363	-1.665853E-10
1016.000000	0.000354	-1.634412E-10
1017.000000	0.000341	-1.595815E-10
1018.000000	0.000333	-1.592119E-10
1019.000000	0.000319	-1.582440E-10
1020.000000	0.000308	-1.578626E-10
1021.000000	0.000294	-1.547890E-10
1022.000000	0.000287	-1.510056E-10
1023.000000	0.000283	-1.492751E-10
1024.000000	0.000273	-1.476268E-10
1025.000000	0.000263	-1.478380E-10
1026.000000	0.000250	-1.474685E-10
1027.000000	0.000239	-1.477617E-10
1028.000000	0.000224	-1.459667E-10
1029.000000	0.000217	-1.490111E-10
1030.000000	0.000206	-1.473510E-10
1031.000000	0.000200	-1.462014E-10
1032.000000	0.000195	-1.451280E-10
1033.000000	0.000192	-1.423007E-10
1034.000000	0.000194	-1.391681E-10
1035.000000	0.000195	-1.328155E-10
1036.000000	0.000199	-1.269027E-10
1037.000000	0.000201	-1.206497E-10
1038.000000	0.000201	-1.161330E-10
1039.000000	0.000200	-1.116104E-10
1040.000000	0.000200	-1.099034E-10
1041.000000	0.000199	-1.081614E-10
1042.000000	0.000193	-1.039672E-10
1043.000000	0.000196	-1.050994E-10
1044.000000	0.000191	-1.017734E-10
1045.000000	0.000188	-1.010694E-10
1046.000000	0.000186	-1.018731E-10
1047.000000	0.000173	-9.777877E-11
1048.000000	0.000168	-9.844162E-11
1049.000000	0.000161	-9.733288E-11
1050.000000	0.000153	-9.505702E-11
1051.000000	0.000152	-9.605418E-11
1052.000000	0.000143	-9.295112E-11
1053.000000	0.000137	-9.271652E-11
1054.000000	0.000135	-9.447629E-11
1055.000000	0.000126	-9.209472E-11
1056.000000	0.000120	-9.339104E-11
1057.000000	0.000111	-9.105645E-11
1058.000000	0.000103	-8.982452E-11
1059.000000	9.879086E-5	-9.339686E-11
1060.000000	9.154369E-5	-9.857053E-11
1061.000000	8.111252E-5	-1.028937E-10
1062.000000	7.099557E-5	-1.112762E-10
1063.000000	5.808273E-5	-1.434797E-10
1064.000000	4.372902E-5	-2.029772E-10
1065.000000	4.278154E-5	-2.249856E-10
1066.000000	4.611609E-5	-1.642156E-10
1067.000000	5.535531E-5	-1.145728E-10
1068.000000	6.353800E-5	-9.774936E-11
1069.000000	7.178299E-5	-8.554847E-11
1070.000000	8.250763E-5	-7.952414E-11
1071.000000	8.672381E-5	-7.416863E-11
1072.000000	9.363739E-5	-7.262009E-11
1073.000000	9.369404E-5	-6.826174E-11
1074.000000	0.000100	-6.798606E-11
1075.000000	0.000102	-6.592123E-11
1076.000000	0.000105	-6.468936E-11
1077.000000	0.000105	-6.305287E-11
1078.000000	0.000106	-6.180340E-11
1079.000000	0.000106	-5.976790E-11
1080.000000	0.000109	-6.038384E-11
1081.000000	0.000110	-5.939255E-11
1082.000000	0.000111	-5.886462E-11
1083.000000	0.000108	-5.682326E-11
1084.000000	0.000109	-5.618971E-11
1085.000000	0.000112	-5.729845E-11
1086.000000	0.000107	-5.428336E-11
1087.000000	0.000109	-5.426578E-11
1088.000000	0.000108	-5.342695E-11
1089.000000	0.000107	-5.281104E-11
1090.000000	0.000110	-5.403703E-11
1091.000000	0.000111	-5.397248E-11
1092.000000	0.000113	-5.434203E-11
1093.000000	0.000112	-5.338592E-11
1094.000000	0.000111	-5.221268E-11
1095.000000	0.000108	-4.949099E-11
1096.000000	0.000110	-5.022421E-11
1097.000000	0.000108	-4.946741E-11
1098.000000	0.000106	-4.867558E-11
1099.000000	0.000104	-4.871663E-11
1100.000000	9.669879E-5	-4.642897E-11
