Wavelength (nm)	EQE (%)	Current (A)	Dark Current (A) -> 	-647.720740000E-12	
400.000000	20.188722	-4.369843E-7
401.000000	21.383163	-6.405603E-7
402.000000	21.115354	-9.609823E-7
403.000000	21.384603	-1.446862E-6
404.000000	21.431720	-1.947286E-6
405.000000	21.181417	-2.571156E-6
406.000000	21.268657	-3.541881E-6
407.000000	21.289121	-3.853369E-6
408.000000	21.313646	-4.195539E-6
409.000000	21.091293	-4.641370E-6
410.000000	21.586850	-4.764684E-6
411.000000	21.690082	-6.356065E-6
412.000000	21.503043	-7.332163E-6
413.000000	21.648206	-9.583537E-6
414.000000	21.208527	-1.093452E-5
415.000000	21.350226	-1.098083E-5
416.000000	21.369078	-1.048946E-5
417.000000	21.112092	-9.272739E-6
418.000000	20.756371	-6.201981E-6
419.000000	21.254432	-4.629598E-6
420.000000	21.598892	-4.795767E-6
421.000000	21.403925	-5.181135E-6
422.000000	21.607364	-4.737885E-6
423.000000	21.596775	-4.924038E-6
424.000000	21.519431	-5.474274E-6
425.000000	21.741057	-5.971519E-6
426.000000	21.598659	-6.305483E-6
427.000000	21.889532	-6.649997E-6
428.000000	22.010173	-7.351509E-6
429.000000	22.046790	-8.216311E-6
430.000000	22.007221	-8.899534E-6
431.000000	22.024412	-9.068529E-6
432.000000	22.005959	-8.956969E-6
433.000000	22.224524	-9.195176E-6
434.000000	22.171733	-1.027781E-5
435.000000	22.265254	-1.053807E-5
436.000000	22.054060	-1.051015E-5
437.000000	22.519742	-1.157012E-5
438.000000	22.279669	-1.192141E-5
439.000000	22.329178	-1.174710E-5
440.000000	22.871315	-1.192863E-5
441.000000	23.111770	-1.323374E-5
442.000000	23.402842	-1.308391E-5
443.000000	23.219105	-1.242197E-5
444.000000	23.731510	-1.252552E-5
445.000000	23.853936	-1.251722E-5
446.000000	24.083440	-1.228929E-5
447.000000	24.434287	-1.393891E-5
448.000000	24.372396	-1.569032E-5
449.000000	24.722315	-1.483182E-5
450.000000	24.450950	-1.357916E-5
451.000000	24.823198	-1.510239E-5
452.000000	25.228627	-1.618910E-5
453.000000	25.122216	-1.493462E-5
454.000000	25.253438	-1.315606E-5
455.000000	25.931507	-1.419737E-5
456.000000	26.753341	-1.717451E-5
457.000000	26.355501	-1.871049E-5
458.000000	26.663966	-1.930049E-5
459.000000	26.555151	-1.818170E-5
460.000000	26.246015	-1.675330E-5
461.000000	26.859080	-1.610021E-5
462.000000	27.321462	-1.599043E-5
463.000000	27.830019	-1.636494E-5
464.000000	27.609034	-1.619455E-5
465.000000	28.298840	-1.677352E-5
466.000000	27.705931	-1.539247E-5
467.000000	27.797434	-1.252512E-5
468.000000	28.818601	-1.261648E-5
469.000000	29.043835	-1.646977E-5
470.000000	28.646410	-1.726213E-5
471.000000	27.891498	-1.284146E-5
472.000000	29.375877	-1.253193E-5
473.000000	29.846112	-1.751204E-5
474.000000	29.238471	-1.786151E-5
475.000000	28.602770	-1.353168E-5
476.000000	29.564708	-1.299633E-5
477.000000	29.723937	-1.542996E-5
478.000000	30.164184	-1.470626E-5
479.000000	30.138873	-1.420837E-5
480.000000	30.916821	-1.736559E-5
481.000000	29.858641	-1.658497E-5
482.000000	29.183260	-1.179847E-5
483.000000	30.732538	-1.264339E-5
484.000000	30.172307	-1.581086E-5
485.000000	29.445423	-1.306057E-5
486.000000	30.234592	-1.186750E-5
487.000000	30.694388	-1.433700E-5
488.000000	30.168527	-1.405022E-5
489.000000	30.971756	-1.222565E-5
490.000000	30.935416	-1.357431E-5
491.000000	30.310911	-1.475127E-5
492.000000	30.450107	-1.634777E-5
493.000000	31.124398	-1.778780E-5
494.000000	29.957153	-1.560071E-5
495.000000	30.351564	-1.532748E-5
496.000000	30.023380	-1.738347E-5
497.000000	30.123624	-1.870230E-5
498.000000	29.876031	-1.704457E-5
499.000000	30.175543	-1.663898E-5
500.000000	30.477310	-1.868544E-5
501.000000	29.826931	-2.193735E-5
502.000000	29.406769	-2.072812E-5
503.000000	29.500027	-1.926007E-5
504.000000	28.861912	-2.276412E-5
505.000000	29.329972	-2.569529E-5
506.000000	28.703567	-2.331467E-5
507.000000	28.872724	-1.882196E-5
508.000000	29.272052	-1.866780E-5
509.000000	28.978966	-1.893130E-5
510.000000	28.425044	-1.624359E-5
511.000000	28.738060	-1.458626E-5
512.000000	29.286875	-1.656213E-5
513.000000	29.500882	-1.905008E-5
514.000000	28.725060	-2.293512E-5
515.000000	28.958487	-2.645923E-5
516.000000	28.927672	-3.366507E-5
517.000000	28.239830	-3.942497E-5
518.000000	27.978603	-3.370006E-5
519.000000	27.749425	-2.721772E-5
520.000000	27.623425	-2.570388E-5
521.000000	26.924713	-1.924619E-5
522.000000	27.038184	-1.524941E-5
523.000000	27.785998	-1.432395E-5
524.000000	28.192150	-1.906790E-5
525.000000	28.001481	-2.652126E-5
526.000000	27.701410	-2.924301E-5
527.000000	27.686403	-3.161039E-5
528.000000	27.418704	-3.554898E-5
529.000000	27.009939	-3.353489E-5
530.000000	26.393251	-2.472275E-5
531.000000	26.172461	-1.843237E-5
532.000000	26.543426	-1.485680E-5
533.000000	26.685549	-1.577667E-5
534.000000	26.713738	-1.714198E-5
535.000000	27.171134	-2.187432E-5
536.000000	26.908307	-3.129553E-5
537.000000	26.065421	-3.055934E-5
538.000000	25.833558	-2.268499E-5
539.000000	26.119605	-2.256076E-5
540.000000	25.636235	-1.837284E-5
541.000000	25.818645	-1.611833E-5
542.000000	25.944935	-1.686373E-5
543.000000	26.663217	-2.026812E-5
544.000000	26.018685	-2.709489E-5
545.000000	25.486204	-2.871169E-5
546.000000	25.631066	-2.581133E-5
547.000000	25.458813	-2.558038E-5
548.000000	24.569935	-1.988840E-5
549.000000	25.300478	-1.491891E-5
550.000000	25.781192	-1.503347E-5
551.000000	25.657326	-1.651122E-5
552.000000	25.956012	-2.228553E-5
553.000000	25.382407	-2.700015E-5
554.000000	25.158525	-2.774511E-5
555.000000	25.657185	-2.870145E-5
556.000000	24.578037	-2.418489E-5
557.000000	24.849185	-1.917871E-5
558.000000	24.951081	-1.816637E-5
559.000000	25.367873	-2.040797E-5
560.000000	25.350899	-2.445544E-5
561.000000	24.841387	-2.866518E-5
562.000000	24.470717	-2.544015E-5
563.000000	24.311600	-2.494982E-5
564.000000	24.150850	-2.112718E-5
565.000000	24.032943	-1.631782E-5
566.000000	24.349126	-1.641433E-5
567.000000	24.525927	-1.759716E-5
568.000000	24.416195	-2.111326E-5
569.000000	24.141667	-2.415440E-5
570.000000	24.218027	-2.293644E-5
571.000000	24.114035	-2.130929E-5
572.000000	24.430639	-1.956737E-5
573.000000	24.030473	-1.569752E-5
574.000000	24.214046	-1.597618E-5
575.000000	24.151774	-1.857818E-5
576.000000	24.271554	-2.395382E-5
577.000000	23.857897	-2.627759E-5
578.000000	23.701909	-2.745957E-5
579.000000	23.494492	-2.534926E-5
580.000000	23.736109	-2.099041E-5
581.000000	23.504400	-1.867369E-5
582.000000	23.554013	-1.780463E-5
583.000000	23.828102	-1.996076E-5
584.000000	23.684984	-2.381376E-5
585.000000	23.440424	-2.507003E-5
586.000000	23.540842	-2.409123E-5
587.000000	23.624497	-2.281314E-5
588.000000	23.424005	-1.896915E-5
589.000000	23.325047	-1.804356E-5
590.000000	23.307354	-1.869612E-5
591.000000	23.278468	-2.678083E-5
592.000000	23.324010	-2.704941E-5
593.000000	23.418104	-2.704443E-5
594.000000	23.120397	-2.557187E-5
595.000000	23.348444	-2.520767E-5
596.000000	23.457408	-2.556885E-5
597.000000	23.271076	-2.620093E-5
598.000000	22.973114	-2.823010E-5
599.000000	23.057525	-3.024063E-5
600.000000	23.112067	-3.157559E-5
601.000000	22.967964	-3.253716E-5
602.000000	22.902812	-3.221831E-5
603.000000	22.838608	-3.137215E-5
604.000000	22.832835	-2.945626E-5
605.000000	22.847434	-2.809206E-5
606.000000	22.968203	-2.855486E-5
607.000000	22.968655	-2.896801E-5
608.000000	22.910216	-3.162180E-5
609.000000	23.162095	-3.452759E-5
610.000000	22.965016	-3.586732E-5
611.000000	23.113002	-3.728462E-5
612.000000	23.117782	-3.675439E-5
613.000000	23.196205	-3.537402E-5
614.000000	23.160751	-3.291225E-5
615.000000	23.221272	-3.123902E-5
616.000000	23.426614	-3.161135E-5
617.000000	23.528832	-3.338095E-5
618.000000	23.512569	-3.652439E-5
619.000000	23.501815	-3.890513E-5
620.000000	23.987679	-4.082585E-5
621.000000	24.037473	-4.195765E-5
622.000000	24.011449	-4.267292E-5
623.000000	24.070183	-4.383586E-5
624.000000	24.235028	-4.523470E-5
625.000000	23.925433	-4.736020E-5
626.000000	23.844893	-4.443676E-5
627.000000	23.473200	-4.401446E-5
628.000000	23.379638	-4.375744E-5
629.000000	23.822235	-4.432562E-5
630.000000	23.799842	-4.499887E-5
631.000000	23.884322	-4.708462E-5
632.000000	24.036247	-4.956657E-5
633.000000	24.044712	-5.124076E-5
634.000000	24.159136	-5.276156E-5
635.000000	24.073406	-5.244246E-5
636.000000	24.150180	-5.173461E-5
637.000000	24.112071	-5.172310E-5
638.000000	24.169586	-5.182497E-5
639.000000	24.239628	-5.233556E-5
640.000000	24.308454	-5.158332E-5
641.000000	24.177201	-5.033372E-5
642.000000	24.247391	-5.058102E-5
643.000000	24.258106	-5.082740E-5
644.000000	24.287349	-5.342608E-5
645.000000	24.322442	-5.603094E-5
646.000000	24.296395	-5.773018E-5
647.000000	24.162615	-5.739586E-5
648.000000	24.234270	-5.505288E-5
649.000000	24.321497	-5.333104E-5
650.000000	24.180133	-5.161051E-5
651.000000	24.205993	-5.268696E-5
652.000000	23.988943	-5.519333E-5
653.000000	24.041940	-5.716419E-5
654.000000	23.934214	-5.843775E-5
655.000000	23.883117	-5.616044E-5
656.000000	23.841663	-5.345801E-5
657.000000	23.668300	-5.216417E-5
658.000000	23.703409	-5.123491E-5
659.000000	23.713160	-5.392599E-5
660.000000	23.634452	-5.851745E-5
661.000000	23.737577	-6.093371E-5
662.000000	23.538680	-6.152385E-5
663.000000	23.639032	-5.837309E-5
664.000000	23.421059	-5.192785E-5
665.000000	23.244779	-4.902881E-5
666.000000	23.283794	-5.066989E-5
667.000000	23.351836	-5.465804E-5
668.000000	23.351652	-5.907192E-5
669.000000	23.282265	-6.209621E-5
670.000000	23.194780	-6.017139E-5
671.000000	23.256144	-5.548159E-5
672.000000	23.027257	-5.353567E-5
673.000000	23.208968	-5.268595E-5
674.000000	23.088627	-5.290662E-5
675.000000	23.209505	-5.809998E-5
676.000000	23.181618	-6.026340E-5
677.000000	23.243601	-5.975868E-5
678.000000	23.241886	-5.967593E-5
679.000000	23.252948	-5.557852E-5
680.000000	23.433426	-5.298384E-5
681.000000	23.579483	-5.568578E-5
682.000000	23.569090	-5.958261E-5
683.000000	23.411254	-6.133592E-5
684.000000	23.558041	-6.278241E-5
685.000000	23.762132	-6.210449E-5
686.000000	23.688262	-5.581833E-5
687.000000	23.866173	-5.440160E-5
688.000000	24.150872	-5.919948E-5
689.000000	24.202416	-6.141571E-5
690.000000	24.273995	-6.478743E-5
691.000000	24.402170	-6.649191E-5
692.000000	24.398239	-6.303418E-5
693.000000	24.866856	-5.989870E-5
694.000000	24.893727	-5.698411E-5
695.000000	24.835081	-5.706217E-5
696.000000	24.966119	-6.033614E-5
697.000000	25.154086	-6.553933E-5
698.000000	25.232846	-6.853736E-5
699.000000	25.250373	-6.651734E-5
700.000000	25.476285	-6.421994E-5
701.000000	25.327555	-6.270170E-5
702.000000	25.558137	-6.001440E-5
703.000000	25.633543	-6.233084E-5
704.000000	26.021459	-6.975063E-5
705.000000	25.867375	-7.037438E-5
706.000000	25.945742	-6.771005E-5
707.000000	26.020674	-6.760125E-5
708.000000	26.281912	-6.651955E-5
709.000000	26.228643	-6.028586E-5
710.000000	26.078042	-6.103970E-5
711.000000	26.212050	-7.199913E-5
712.000000	26.162453	-7.638936E-5
713.000000	26.171434	-7.178216E-5
714.000000	26.074767	-6.546961E-5
715.000000	26.209183	-6.065530E-5
716.000000	26.130173	-6.093107E-5
717.000000	25.825684	-6.228979E-5
718.000000	25.873547	-6.600702E-5
719.000000	25.629427	-6.933956E-5
720.000000	25.534573	-6.884021E-5
721.000000	25.413473	-6.772750E-5
722.000000	25.151560	-6.395979E-5
723.000000	24.919365	-5.943695E-5
724.000000	24.773621	-5.963227E-5
725.000000	24.432567	-6.175906E-5
726.000000	24.248972	-6.360602E-5
727.000000	23.891691	-6.456518E-5
728.000000	23.765035	-6.274269E-5
729.000000	23.337055	-5.907491E-5
730.000000	22.819641	-5.519910E-5
731.000000	22.645818	-5.357202E-5
732.000000	22.039099	-5.328036E-5
733.000000	21.732829	-5.508945E-5
734.000000	21.252560	-5.661174E-5
735.000000	20.889808	-5.480794E-5
736.000000	20.455521	-5.234617E-5
737.000000	20.018468	-5.012402E-5
738.000000	19.390090	-4.681978E-5
739.000000	18.903240	-4.542614E-5
740.000000	18.307003	-4.490921E-5
741.000000	18.007751	-4.522387E-5
742.000000	17.390567	-4.470530E-5
743.000000	16.881462	-4.254217E-5
744.000000	16.292956	-3.916297E-5
745.000000	15.732561	-3.678204E-5
746.000000	15.131746	-3.464577E-5
747.000000	14.500988	-3.333073E-5
748.000000	14.002406	-3.330046E-5
749.000000	13.470773	-3.222340E-5
750.000000	12.890288	-3.077515E-5
751.000000	12.332923	-2.881278E-5
752.000000	11.824475	-2.626674E-5
753.000000	11.249805	-2.432784E-5
754.000000	10.689531	-2.267581E-5
755.000000	10.118333	-2.174292E-5
756.000000	9.611737	-2.108169E-5
757.000000	9.128661	-1.998635E-5
758.000000	8.595687	-1.852917E-5
759.000000	8.144712	-1.720118E-5
760.000000	7.687934	-1.559626E-5
761.000000	7.191262	-1.411927E-5
762.000000	6.730371	-1.318487E-5
763.000000	6.349320	-1.261732E-5
764.000000	5.978240	-1.207906E-5
765.000000	5.632519	-1.135181E-5
766.000000	5.269229	-1.038926E-5
767.000000	4.953789	-9.535040E-6
768.000000	4.619935	-8.626278E-6
769.000000	4.325324	-7.934079E-6
770.000000	4.019861	-7.415762E-6
771.000000	3.748010	-7.015340E-6
772.000000	3.504242	-6.631708E-6
773.000000	3.280879	-6.158818E-6
774.000000	3.053864	-5.577532E-6
775.000000	2.852075	-5.008004E-6
776.000000	2.656534	-4.523259E-6
777.000000	2.469901	-4.219695E-6
778.000000	2.307607	-4.057234E-6
779.000000	2.158985	-3.903779E-6
780.000000	2.015960	-3.679325E-6
781.000000	1.886141	-3.355799E-6
782.000000	1.760598	-3.012447E-6
783.000000	1.645387	-2.721675E-6
784.000000	1.535568	-2.525454E-6
785.000000	1.434524	-2.426647E-6
786.000000	1.354100	-2.324167E-6
787.000000	1.266646	-2.190295E-6
788.000000	1.194634	-2.037525E-6
789.000000	1.120505	-1.831636E-6
790.000000	1.046162	-1.655471E-6
791.000000	0.986521	-1.533264E-6
792.000000	0.924032	-1.464648E-6
793.000000	0.868216	-1.427098E-6
794.000000	0.815926	-1.398636E-6
795.000000	0.773518	-1.339130E-6
796.000000	0.730797	-1.212652E-6
797.000000	0.689128	-1.103689E-6
798.000000	0.651396	-1.034544E-6
799.000000	0.613773	-9.893944E-7
800.000000	0.579910	-9.739144E-7
801.000000	0.550583	-9.677115E-7
802.000000	0.523848	-9.318138E-7
803.000000	0.498974	-8.625055E-7
804.000000	0.473124	-7.761832E-7
805.000000	0.448772	-7.102554E-7
806.000000	0.426142	-6.706831E-7
807.000000	0.403018	-6.534017E-7
808.000000	0.386583	-6.603319E-7
809.000000	0.369023	-6.413905E-7
810.000000	0.352667	-5.959714E-7
811.000000	0.334673	-5.484555E-7
812.000000	0.319842	-4.955060E-7
813.000000	0.304236	-4.574407E-7
814.000000	0.289858	-4.484890E-7
815.000000	0.275387	-4.438920E-7
816.000000	0.263677	-4.450928E-7
817.000000	0.253303	-4.276903E-7
818.000000	0.242727	-3.865660E-7
819.000000	0.231733	-3.490886E-7
820.000000	0.221497	-3.236395E-7
821.000000	0.212247	-3.125097E-7
822.000000	0.202417	-3.145564E-7
823.000000	0.193503	-3.179626E-7
824.000000	0.186380	-3.104419E-7
825.000000	0.178588	-2.910718E-7
826.000000	0.171111	-2.651180E-7
827.000000	0.164298	-2.466836E-7
828.000000	0.157640	-2.389845E-7
829.000000	0.151531	-2.341782E-7
830.000000	0.144007	-2.315337E-7
831.000000	0.138484	-2.290525E-7
832.000000	0.133293	-2.178702E-7
833.000000	0.128472	-2.020717E-7
834.000000	0.123141	-1.843839E-7
835.000000	0.117679	-1.706270E-7
836.000000	0.112527	-1.659028E-7
837.000000	0.108247	-1.651033E-7
838.000000	0.103668	-1.620451E-7
839.000000	0.099914	-1.575399E-7
840.000000	0.096135	-1.492721E-7
841.000000	0.092689	-1.376748E-7
842.000000	0.088494	-1.281942E-7
843.000000	0.084732	-1.244679E-7
844.000000	0.081649	-1.225479E-7
845.000000	0.078268	-1.199024E-7
846.000000	0.075319	-1.160417E-7
847.000000	0.072762	-1.103279E-7
848.000000	0.069987	-1.018014E-7
849.000000	0.066875	-9.320956E-8
850.000000	0.064231	-8.959810E-8
851.000000	0.061848	-8.756723E-8
852.000000	0.059322	-8.484468E-8
853.000000	0.056925	-8.260639E-8
854.000000	0.055051	-7.858891E-8
855.000000	0.052942	-7.284247E-8
856.000000	0.050855	-6.779246E-8
857.000000	0.048959	-6.371786E-8
858.000000	0.046877	-6.143057E-8
859.000000	0.044833	-5.990851E-8
860.000000	0.043208	-5.721717E-8
861.000000	0.041586	-5.337935E-8
862.000000	0.040078	-4.919214E-8
863.000000	0.038573	-4.517898E-8
864.000000	0.037024	-4.257253E-8
865.000000	0.035694	-4.078508E-8
866.000000	0.034272	-3.858493E-8
867.000000	0.032748	-3.709383E-8
868.000000	0.031668	-3.502161E-8
869.000000	0.030516	-3.211333E-8
870.000000	0.029434	-3.002586E-8
871.000000	0.028263	-2.824232E-8
872.000000	0.027147	-2.675175E-8
873.000000	0.026064	-2.581600E-8
874.000000	0.025053	-2.456845E-8
875.000000	0.024047	-2.302666E-8
876.000000	0.023227	-2.155144E-8
877.000000	0.022340	-2.002455E-8
878.000000	0.021468	-1.895312E-8
879.000000	0.020680	-1.802552E-8
880.000000	0.019904	-1.715683E-8
881.000000	0.018969	-1.632661E-8
882.000000	0.018269	-1.548034E-8
883.000000	0.017590	-1.467391E-8
884.000000	0.016957	-1.396971E-8
885.000000	0.016269	-1.305095E-8
886.000000	0.015659	-1.229918E-8
887.000000	0.015087	-1.187481E-8
888.000000	0.014521	-1.142176E-8
889.000000	0.013920	-1.089271E-8
890.000000	0.013444	-1.039383E-8
891.000000	0.012932	-9.845111E-9
892.000000	0.012463	-9.330194E-9
893.000000	0.011935	-8.899485E-9
894.000000	0.011463	-8.691022E-9
895.000000	0.011042	-8.345951E-9
896.000000	0.010615	-7.922832E-9
897.000000	0.010170	-7.601561E-9
898.000000	0.009829	-7.280409E-9
899.000000	0.009432	-6.966153E-9
900.000000	0.009093	-6.700982E-9
901.000000	0.008738	-6.412626E-9
902.000000	0.008413	-6.211626E-9
903.000000	0.008106	-5.933818E-9
904.000000	0.007783	-5.664434E-9
905.000000	0.007493	-5.519115E-9
906.000000	0.007219	-5.277501E-9
907.000000	0.006941	-5.063029E-9
908.000000	0.006664	-4.874066E-9
909.000000	0.006423	-4.659988E-9
910.000000	0.006185	-4.511291E-9
911.000000	0.005962	-4.340496E-9
912.000000	0.005729	-4.181051E-9
913.000000	0.005505	-4.057442E-9
914.000000	0.005328	-3.901815E-9
915.000000	0.005113	-3.739068E-9
916.000000	0.004950	-3.582286E-9
917.000000	0.004747	-3.393210E-9
918.000000	0.004586	-3.326879E-9
919.000000	0.004418	-3.209420E-9
920.000000	0.004267	-3.052362E-9
921.000000	0.004105	-2.956917E-9
922.000000	0.003956	-2.831377E-9
923.000000	0.003825	-2.709943E-9
924.000000	0.003686	-2.619737E-9
925.000000	0.003566	-2.514204E-9
926.000000	0.003417	-2.427172E-9
927.000000	0.003309	-2.357744E-9
928.000000	0.003193	-2.257045E-9
929.000000	0.003087	-2.186924E-9
930.000000	0.002999	-2.072903E-9
931.000000	0.002916	-1.981508E-9
932.000000	0.002803	-1.903333E-9
933.000000	0.002714	-1.817984E-9
934.000000	0.002627	-1.766007E-9
935.000000	0.002546	-1.707202E-9
936.000000	0.002447	-1.621167E-9
937.000000	0.002396	-1.594666E-9
938.000000	0.002316	-1.517346E-9
939.000000	0.002257	-1.461345E-9
940.000000	0.002199	-1.441443E-9
941.000000	0.002120	-1.382039E-9
942.000000	0.002042	-1.334637E-9
943.000000	0.001979	-1.290021E-9
944.000000	0.001945	-1.236994E-9
945.000000	0.001897	-1.192091E-9
946.000000	0.001844	-1.142448E-9
947.000000	0.001818	-1.111547E-9
948.000000	0.001758	-1.084130E-9
949.000000	0.001715	-1.049333E-9
950.000000	0.001676	-1.021823E-9
951.000000	0.001636	-9.931154E-10
952.000000	0.001590	-9.478424E-10
953.000000	0.001558	-9.312537E-10
954.000000	0.001524	-9.099607E-10
955.000000	0.001494	-8.822498E-10
956.000000	0.001440	-8.557366E-10
957.000000	0.001412	-8.310061E-10
958.000000	0.001406	-8.135672E-10
959.000000	0.001386	-7.920390E-10
960.000000	0.001376	-7.661882E-10
961.000000	0.001324	-7.317439E-10
962.000000	0.001284	-7.075412E-10
963.000000	0.001289	-7.073002E-10
964.000000	0.001239	-6.852861E-10
965.000000	0.001258	-6.870575E-10
966.000000	0.001230	-6.624618E-10
967.000000	0.001220	-6.565373E-10
968.000000	0.001196	-6.362063E-10
969.000000	0.001175	-6.250377E-10
970.000000	0.001179	-6.253776E-10
971.000000	0.001164	-6.068889E-10
972.000000	0.001137	-5.859067E-10
973.000000	0.001132	-5.722336E-10
974.000000	0.001137	-5.624197E-10
975.000000	0.001144	-5.595333E-10
976.000000	0.001117	-5.399062E-10
977.000000	0.001112	-5.367802E-10
978.000000	0.001113	-5.396836E-10
979.000000	0.001091	-5.254823E-10
980.000000	0.001055	-5.067410E-10
981.000000	0.001098	-5.230248E-10
982.000000	0.001069	-5.068877E-10
983.000000	0.001038	-4.953670E-10
984.000000	0.001040	-4.931786E-10
985.000000	0.001025	-4.817172E-10
986.000000	0.001025	-4.759336E-10
987.000000	0.001020	-4.631577E-10
988.000000	0.001028	-4.590576E-10
989.000000	0.001051	-4.640083E-10
990.000000	0.001029	-4.491029E-10
991.000000	0.001036	-4.539363E-10
992.000000	0.001025	-4.517016E-10
993.000000	0.001011	-4.487453E-10
994.000000	0.000992	-4.465630E-10
995.000000	0.000965	-4.347197E-10
996.000000	0.000963	-4.349252E-10
997.000000	0.000993	-4.478827E-10
998.000000	0.000958	-4.316754E-10
999.000000	0.000959	-4.333942E-10
1000.000000	0.000931	-4.179608E-10
1001.000000	0.000935	-4.176268E-10
1002.000000	0.000957	-4.253992E-10
1003.000000	0.000946	-4.161662E-10
1004.000000	0.000944	-4.112446E-10
1005.000000	0.000928	-4.050972E-10
1006.000000	0.000941	-4.126407E-10
1007.000000	0.000920	-4.086987E-10
1008.000000	0.000930	-4.167643E-10
1009.000000	0.000895	-4.001700E-10
1010.000000	0.000899	-4.045161E-10
1011.000000	0.000903	-4.046456E-10
1012.000000	0.000894	-4.024400E-10
1013.000000	0.000880	-4.030500E-10
1014.000000	0.000845	-3.887022E-10
1015.000000	0.000837	-3.844788E-10
1016.000000	0.000831	-3.837396E-10
1017.000000	0.000862	-4.033197E-10
1018.000000	0.000817	-3.912832E-10
1019.000000	0.000815	-4.043110E-10
1020.000000	0.000766	-3.929785E-10
1021.000000	0.000767	-4.037423E-10
1022.000000	0.000751	-3.952252E-10
1023.000000	0.000736	-3.886082E-10
1024.000000	0.000732	-3.965798E-10
1025.000000	0.000699	-3.933420E-10
1026.000000	0.000668	-3.940989E-10
1027.000000	0.000630	-3.899926E-10
1028.000000	0.000620	-4.043231E-10
1029.000000	0.000560	-3.850122E-10
1030.000000	0.000545	-3.893710E-10
1031.000000	0.000525	-3.849129E-10
1032.000000	0.000507	-3.772222E-10
1033.000000	0.000515	-3.814460E-10
1034.000000	0.000545	-3.904736E-10
1035.000000	0.000575	-3.912774E-10
1036.000000	0.000585	-3.730343E-10
1037.000000	0.000603	-3.622941E-10
1038.000000	0.000607	-3.501048E-10
1039.000000	0.000657	-3.670455E-10
1040.000000	0.000650	-3.565689E-10
1041.000000	0.000665	-3.614082E-10
1042.000000	0.000679	-3.650860E-10
1043.000000	0.000673	-3.597655E-10
1044.000000	0.000673	-3.595958E-10
1045.000000	0.000682	-3.674267E-10
1046.000000	0.000659	-3.605813E-10
1047.000000	0.000639	-3.608273E-10
1048.000000	0.000615	-3.594900E-10
1049.000000	0.000598	-3.604167E-10
1050.000000	0.000585	-3.625285E-10
1051.000000	0.000572	-3.620712E-10
1052.000000	0.000549	-3.572490E-10
1053.000000	0.000527	-3.568564E-10
1054.000000	0.000523	-3.670219E-10
1055.000000	0.000485	-3.540054E-10
1056.000000	0.000470	-3.646287E-10
1057.000000	0.000441	-3.622118E-10
1058.000000	0.000417	-3.619069E-10
1059.000000	0.000380	-3.593905E-10
1060.000000	0.000342	-3.678315E-10
1061.000000	0.000279	-3.537183E-10
1062.000000	0.000229	-3.589504E-10
1063.000000	0.000157	-3.866845E-10
1064.000000	9.278195E-5	-4.306664E-10
1065.000000	8.406060E-5	-4.420698E-10
1066.000000	0.000108	-3.842324E-10
1067.000000	0.000170	-3.527268E-10
1068.000000	0.000232	-3.566277E-10
1069.000000	0.000302	-3.595195E-10
1070.000000	0.000360	-3.465032E-10
1071.000000	0.000399	-3.412357E-10
1072.000000	0.000436	-3.378922E-10
1073.000000	0.000470	-3.423325E-10
1074.000000	0.000507	-3.431594E-10
1075.000000	0.000549	-3.535599E-10
1076.000000	0.000556	-3.423617E-10
1077.000000	0.000569	-3.400391E-10
1078.000000	0.000575	-3.339735E-10
1079.000000	0.000598	-3.383203E-10
1080.000000	0.000606	-3.367129E-10
1081.000000	0.000628	-3.398807E-10
1082.000000	0.000612	-3.254741E-10
1083.000000	0.000620	-3.257257E-10
1084.000000	0.000625	-3.227696E-10
1085.000000	0.000656	-3.355339E-10
1086.000000	0.000641	-3.261016E-10
1087.000000	0.000662	-3.305536E-10
1088.000000	0.000672	-3.326304E-10
1089.000000	0.000656	-3.245239E-10
1090.000000	0.000650	-3.200482E-10
1091.000000	0.000706	-3.436403E-10
1092.000000	0.000694	-3.339091E-10
1093.000000	0.000697	-3.314161E-10
1094.000000	0.000681	-3.198780E-10
1095.000000	0.000715	-3.289701E-10
1096.000000	0.000726	-3.313985E-10
1097.000000	0.000707	-3.249343E-10
1098.000000	0.000695	-3.175435E-10
1099.000000	0.000702	-3.285185E-10
1100.000000	0.000685	-3.290991E-10
