Wavelength (nm)	EQE (%)	Current (A)	Dark Current (A) -> 	-60.402724000E-12	
400.000000	25.044589	-5.420894E-7
401.000000	26.608002	-7.970771E-7
402.000000	26.276114	-1.195854E-6
403.000000	26.588312	-1.798940E-6
404.000000	26.393057	-2.398073E-6
405.000000	26.302322	-3.192769E-6
406.000000	26.643467	-4.436951E-6
407.000000	26.325635	-4.764987E-6
408.000000	26.284666	-5.174072E-6
409.000000	25.981479	-5.717509E-6
410.000000	26.441215	-5.836147E-6
411.000000	26.669389	-7.815202E-6
412.000000	26.542635	-9.050576E-6
413.000000	26.550128	-1.175359E-5
414.000000	26.228816	-1.352284E-5
415.000000	26.183237	-1.346654E-5
416.000000	26.041181	-1.278286E-5
417.000000	25.802762	-1.133295E-5
418.000000	25.520328	-7.625446E-6
419.000000	25.881401	-5.637435E-6
420.000000	25.968863	-5.766065E-6
421.000000	26.049592	-6.305687E-6
422.000000	25.829590	-5.663700E-6
423.000000	26.056501	-5.940850E-6
424.000000	26.044434	-6.625378E-6
425.000000	25.856349	-7.101848E-6
426.000000	25.892194	-7.558932E-6
427.000000	26.032432	-7.908602E-6
428.000000	26.405777	-8.819663E-6
429.000000	26.544524	-9.892509E-6
430.000000	26.310788	-1.063986E-5
431.000000	26.288687	-1.082434E-5
432.000000	26.196518	-1.066263E-5
433.000000	26.572167	-1.099397E-5
434.000000	26.412463	-1.224362E-5
435.000000	26.462263	-1.252450E-5
436.000000	26.535209	-1.264570E-5
437.000000	26.983762	-1.386363E-5
438.000000	26.769164	-1.432365E-5
439.000000	26.830977	-1.411544E-5
440.000000	26.694177	-1.392246E-5
441.000000	27.366086	-1.566975E-5
442.000000	27.280775	-1.525196E-5
443.000000	27.533360	-1.473005E-5
444.000000	27.803498	-1.467472E-5
445.000000	28.030846	-1.470903E-5
446.000000	28.078053	-1.432766E-5
447.000000	28.498286	-1.625728E-5
448.000000	28.905880	-1.860886E-5
449.000000	28.283392	-1.696824E-5
450.000000	29.009173	-1.611063E-5
451.000000	29.439138	-1.791072E-5
452.000000	29.176480	-1.872242E-5
453.000000	29.793704	-1.771172E-5
454.000000	30.022565	-1.564059E-5
455.000000	30.523385	-1.671140E-5
456.000000	30.944974	-1.986536E-5
457.000000	31.033755	-2.203171E-5
458.000000	31.116653	-2.252353E-5
459.000000	31.404810	-2.150215E-5
460.000000	31.375513	-2.002755E-5
461.000000	32.107976	-1.924657E-5
462.000000	31.988368	-1.872183E-5
463.000000	32.512350	-1.911830E-5
464.000000	32.267376	-1.892698E-5
465.000000	32.763044	-1.941958E-5
466.000000	32.488892	-1.804972E-5
467.000000	32.521510	-1.465372E-5
468.000000	33.321359	-1.458774E-5
469.000000	34.297932	-1.944919E-5
470.000000	33.363756	-2.010477E-5
471.000000	33.295861	-1.532967E-5
472.000000	34.227541	-1.460168E-5
473.000000	34.755029	-2.039232E-5
474.000000	34.116823	-2.084165E-5
475.000000	33.558890	-1.587637E-5
476.000000	34.358456	-1.510361E-5
477.000000	34.751437	-1.803978E-5
478.000000	34.881659	-1.700622E-5
479.000000	35.171985	-1.658113E-5
480.000000	35.895106	-2.016183E-5
481.000000	35.096308	-1.949423E-5
482.000000	34.695752	-1.402711E-5
483.000000	35.983111	-1.480348E-5
484.000000	35.821149	-1.877096E-5
485.000000	35.016701	-1.553172E-5
486.000000	36.011533	-1.413503E-5
487.000000	36.137701	-1.687951E-5
488.000000	35.878492	-1.670949E-5
489.000000	35.860575	-1.415544E-5
490.000000	36.801639	-1.614838E-5
491.000000	36.309756	-1.767070E-5
492.000000	36.273297	-1.947407E-5
493.000000	36.979956	-2.113429E-5
494.000000	35.663021	-1.857214E-5
495.000000	36.099051	-1.822995E-5
496.000000	36.561505	-2.116903E-5
497.000000	36.333079	-2.255745E-5
498.000000	36.278427	-2.069720E-5
499.000000	36.177417	-1.994845E-5
500.000000	36.628900	-2.245694E-5
501.000000	36.490316	-2.683819E-5
502.000000	35.700076	-2.516412E-5
503.000000	36.029527	-2.352307E-5
504.000000	35.377932	-2.790347E-5
505.000000	35.910221	-3.146009E-5
506.000000	35.089392	-2.850160E-5
507.000000	35.131946	-2.290231E-5
508.000000	35.577637	-2.268909E-5
509.000000	35.341012	-2.308748E-5
510.000000	34.883015	-1.993402E-5
511.000000	35.245619	-1.788923E-5
512.000000	35.984856	-2.034993E-5
513.000000	36.128177	-2.332963E-5
514.000000	35.414814	-2.827646E-5
515.000000	36.369022	-3.323020E-5
516.000000	36.376113	-4.233332E-5
517.000000	36.102270	-5.040154E-5
518.000000	35.893960	-4.323406E-5
519.000000	35.506528	-3.482619E-5
520.000000	35.002957	-3.257061E-5
521.000000	34.784466	-2.486446E-5
522.000000	34.574878	-1.950007E-5
523.000000	35.117811	-1.810357E-5
524.000000	35.832650	-2.423559E-5
525.000000	35.820439	-3.392689E-5
526.000000	35.476890	-3.745120E-5
527.000000	35.705691	-4.076625E-5
528.000000	35.489845	-4.601340E-5
529.000000	35.291092	-4.381657E-5
530.000000	34.818017	-3.261429E-5
531.000000	33.963610	-2.391941E-5
532.000000	34.288130	-1.919164E-5
533.000000	34.421916	-2.035046E-5
534.000000	34.871692	-2.237687E-5
535.000000	35.512541	-2.858963E-5
536.000000	35.444256	-4.122321E-5
537.000000	34.542555	-4.049801E-5
538.000000	34.173263	-3.000826E-5
539.000000	34.645633	-2.992510E-5
540.000000	34.049118	-2.440214E-5
541.000000	34.125694	-2.130434E-5
542.000000	34.450176	-2.239198E-5
543.000000	34.803541	-2.645601E-5
544.000000	34.680229	-3.611470E-5
545.000000	34.488456	-3.885325E-5
546.000000	34.103688	-3.434354E-5
547.000000	34.668307	-3.483385E-5
548.000000	34.349518	-2.780459E-5
549.000000	33.677328	-1.985848E-5
550.000000	34.314855	-2.000960E-5
551.000000	34.532396	-2.222258E-5
552.000000	34.833397	-2.990755E-5
553.000000	34.524573	-3.672499E-5
554.000000	34.097769	-3.760341E-5
555.000000	34.001178	-3.803547E-5
556.000000	33.446963	-3.291195E-5
557.000000	33.300174	-2.570122E-5
558.000000	34.041572	-2.478497E-5
559.000000	33.957250	-2.731796E-5
560.000000	34.674120	-3.344934E-5
561.000000	33.838168	-3.904682E-5
562.000000	34.036585	-3.538498E-5
563.000000	33.606610	-3.448884E-5
564.000000	33.493515	-2.930015E-5
565.000000	32.843415	-2.229993E-5
566.000000	33.129113	-2.233313E-5
567.000000	33.736927	-2.420598E-5
568.000000	33.716507	-2.915546E-5
569.000000	33.095365	-3.311282E-5
570.000000	33.046794	-3.129800E-5
571.000000	33.172240	-2.931392E-5
572.000000	33.078013	-2.649336E-5
573.000000	32.854878	-2.146192E-5
574.000000	33.181827	-2.189303E-5
575.000000	33.204714	-2.554194E-5
576.000000	33.431860	-3.299421E-5
577.000000	32.778818	-3.610328E-5
578.000000	32.578248	-3.774315E-5
579.000000	32.368004	-3.492329E-5
580.000000	32.432525	-2.868086E-5
581.000000	32.291069	-2.565449E-5
582.000000	32.470765	-2.454486E-5
583.000000	32.617926	-2.732398E-5
584.000000	32.631542	-3.280896E-5
585.000000	32.460824	-3.471754E-5
586.000000	32.375193	-3.313213E-5
587.000000	32.085987	-3.098403E-5
588.000000	32.457012	-2.628423E-5
589.000000	32.157291	-2.487592E-5
590.000000	32.185584	-2.581784E-5
591.000000	32.351956	-3.721947E-5
592.000000	32.414701	-3.759210E-5
593.000000	32.741962	-3.781210E-5
594.000000	32.611679	-3.606952E-5
595.000000	32.652793	-3.525292E-5
596.000000	32.580053	-3.551264E-5
597.000000	32.317341	-3.638613E-5
598.000000	32.086206	-3.942856E-5
599.000000	32.170060	-4.219199E-5
600.000000	32.245177	-4.405320E-5
601.000000	31.977458	-4.530030E-5
602.000000	31.743548	-4.465493E-5
603.000000	31.834139	-4.372882E-5
604.000000	31.850058	-4.108923E-5
605.000000	31.889669	-3.920994E-5
606.000000	31.821304	-3.956134E-5
607.000000	31.920267	-4.025776E-5
608.000000	31.788868	-4.387655E-5
609.000000	32.118321	-4.787858E-5
610.000000	32.006872	-4.998911E-5
611.000000	31.970384	-5.157286E-5
612.000000	32.060471	-5.097215E-5
613.000000	32.044371	-4.886740E-5
614.000000	31.956062	-4.541070E-5
615.000000	32.121253	-4.321195E-5
616.000000	32.270291	-4.354481E-5
617.000000	32.400423	-4.596730E-5
618.000000	32.475916	-5.044804E-5
619.000000	32.750003	-5.421467E-5
620.000000	32.688383	-5.563402E-5
621.000000	32.951761	-5.751763E-5
622.000000	32.959994	-5.857619E-5
623.000000	33.047936	-6.018586E-5
624.000000	33.241657	-6.204558E-5
625.000000	32.853774	-6.503378E-5
626.000000	32.780876	-6.108964E-5
627.000000	32.165041	-6.031248E-5
628.000000	32.090954	-6.006158E-5
629.000000	32.542454	-6.055118E-5
630.000000	32.413185	-6.128430E-5
631.000000	32.492846	-6.405513E-5
632.000000	32.662375	-6.735502E-5
633.000000	32.668105	-6.961774E-5
634.000000	32.669847	-7.134825E-5
635.000000	32.550726	-7.090979E-5
636.000000	32.857856	-7.038823E-5
637.000000	32.864069	-7.049712E-5
638.000000	32.612787	-6.992907E-5
639.000000	32.666184	-7.052926E-5
640.000000	32.716941	-6.942640E-5
641.000000	32.744150	-6.816897E-5
642.000000	32.655524	-6.812072E-5
643.000000	32.704244	-6.852438E-5
644.000000	32.760301	-7.206445E-5
645.000000	32.671728	-7.526496E-5
646.000000	32.703169	-7.770535E-5
647.000000	32.606551	-7.745358E-5
648.000000	32.552616	-7.394963E-5
649.000000	32.613675	-7.151374E-5
650.000000	32.417938	-6.919343E-5
651.000000	32.439465	-7.060800E-5
652.000000	32.421281	-7.459430E-5
653.000000	32.383899	-7.699875E-5
654.000000	32.238653	-7.871386E-5
655.000000	32.180560	-7.567163E-5
656.000000	32.138474	-7.206120E-5
657.000000	32.019208	-7.056930E-5
658.000000	31.987538	-6.914105E-5
659.000000	31.990842	-7.275023E-5
660.000000	31.771693	-7.866476E-5
661.000000	31.874999	-8.182225E-5
662.000000	31.767891	-8.303282E-5
663.000000	31.765087	-7.843918E-5
664.000000	31.677682	-7.023397E-5
665.000000	31.461422	-6.635968E-5
666.000000	31.424064	-6.838464E-5
667.000000	31.544514	-7.383408E-5
668.000000	31.396847	-7.942359E-5
669.000000	31.259510	-8.337235E-5
670.000000	31.170909	-8.086289E-5
671.000000	31.099151	-7.419245E-5
672.000000	31.100611	-7.230527E-5
673.000000	31.065726	-7.052133E-5
674.000000	30.965634	-7.095645E-5
675.000000	31.143423	-7.796083E-5
676.000000	31.043689	-8.070180E-5
677.000000	31.182302	-8.016887E-5
678.000000	31.233753	-8.019587E-5
679.000000	31.134058	-7.441572E-5
680.000000	31.291387	-7.075098E-5
681.000000	31.507718	-7.440926E-5
682.000000	31.431937	-7.945987E-5
683.000000	31.413573	-8.230146E-5
684.000000	31.520718	-8.400302E-5
685.000000	31.588235	-8.255872E-5
686.000000	31.555877	-7.435735E-5
687.000000	31.767175	-7.241149E-5
688.000000	32.069760	-7.861054E-5
689.000000	32.103307	-8.146490E-5
690.000000	32.274334	-8.614038E-5
691.000000	32.404003	-8.829559E-5
692.000000	32.349947	-8.357785E-5
693.000000	32.869918	-7.917629E-5
694.000000	32.863291	-7.522720E-5
695.000000	32.650975	-7.502031E-5
696.000000	33.116084	-8.003233E-5
697.000000	33.175251	-8.643859E-5
698.000000	33.271235	-9.037120E-5
699.000000	33.376330	-8.792364E-5
700.000000	33.648710	-8.482077E-5
701.000000	33.502018	-8.293866E-5
702.000000	33.605962	-7.891192E-5
703.000000	33.886692	-8.239930E-5
704.000000	33.992138	-9.111607E-5
705.000000	33.991108	-9.247568E-5
706.000000	34.138414	-8.909029E-5
707.000000	34.407560	-8.939023E-5
708.000000	34.698025	-8.782074E-5
709.000000	34.386259	-7.903593E-5
710.000000	34.300531	-8.028571E-5
711.000000	34.364140	-9.439125E-5
712.000000	34.463455	-0.000101
713.000000	34.614042	-9.493827E-5
714.000000	34.370480	-8.629883E-5
715.000000	34.491170	-7.982211E-5
716.000000	34.590205	-8.065841E-5
717.000000	34.379098	-8.292004E-5
718.000000	34.146769	-8.711316E-5
719.000000	33.860243	-9.160776E-5
720.000000	33.602872	-9.059203E-5
721.000000	33.588073	-8.951300E-5
722.000000	33.328746	-8.475417E-5
723.000000	32.970418	-7.864009E-5
724.000000	32.915718	-7.923101E-5
725.000000	32.651912	-8.253539E-5
726.000000	32.410499	-8.501403E-5
727.000000	32.094165	-8.673164E-5
728.000000	32.157289	-8.489930E-5
729.000000	31.538007	-7.983462E-5
730.000000	30.891444	-7.472422E-5
731.000000	30.825422	-7.292208E-5
732.000000	30.250060	-7.313067E-5
733.000000	29.637094	-7.512557E-5
734.000000	29.029117	-7.732663E-5
735.000000	28.713569	-7.533490E-5
736.000000	28.221626	-7.221982E-5
737.000000	27.593005	-6.908982E-5
738.000000	26.927268	-6.501923E-5
739.000000	26.359481	-6.334414E-5
740.000000	25.624523	-6.285994E-5
741.000000	25.041426	-6.288793E-5
742.000000	24.343923	-6.258004E-5
743.000000	23.645658	-5.958830E-5
744.000000	22.981914	-5.524105E-5
745.000000	22.258333	-5.203901E-5
746.000000	21.482309	-4.918607E-5
747.000000	20.747140	-4.768760E-5
748.000000	20.091114	-4.778060E-5
749.000000	19.221359	-4.597936E-5
750.000000	18.566624	-4.432722E-5
751.000000	17.819530	-4.163086E-5
752.000000	17.047585	-3.786929E-5
753.000000	16.307215	-3.526455E-5
754.000000	15.589984	-3.307119E-5
755.000000	14.740506	-3.167534E-5
756.000000	14.086873	-3.089713E-5
757.000000	13.394502	-2.932601E-5
758.000000	12.688257	-2.735126E-5
759.000000	12.019704	-2.538495E-5
760.000000	11.407820	-2.314267E-5
761.000000	10.733331	-2.107374E-5
762.000000	10.067402	-1.972215E-5
763.000000	9.519799	-1.891767E-5
764.000000	8.973586	-1.813117E-5
765.000000	8.447695	-1.702553E-5
766.000000	7.936125	-1.564754E-5
767.000000	7.463175	-1.436510E-5
768.000000	6.988945	-1.304966E-5
769.000000	6.541505	-1.199929E-5
770.000000	6.095782	-1.124538E-5
771.000000	5.708533	-1.068495E-5
772.000000	5.345895	-1.011700E-5
773.000000	5.000056	-9.386034E-6
774.000000	4.678954	-8.545573E-6
775.000000	4.367300	-7.668612E-6
776.000000	4.071935	-6.933250E-6
777.000000	3.793918	-6.481708E-6
778.000000	3.546007	-6.234587E-6
779.000000	3.308428	-5.982149E-6
780.000000	3.097334	-5.652937E-6
781.000000	2.903370	-5.165640E-6
782.000000	2.719553	-4.653254E-6
783.000000	2.549753	-4.217609E-6
784.000000	2.377531	-3.910180E-6
785.000000	2.218971	-3.753622E-6
786.000000	2.093772	-3.593735E-6
787.000000	1.963305	-3.394963E-6
788.000000	1.847695	-3.151362E-6
789.000000	1.741926	-2.847445E-6
790.000000	1.634865	-2.587047E-6
791.000000	1.541136	-2.395255E-6
792.000000	1.444359	-2.289400E-6
793.000000	1.357571	-2.231456E-6
794.000000	1.274531	-2.184762E-6
795.000000	1.211603	-2.097551E-6
796.000000	1.147131	-1.903498E-6
797.000000	1.084012	-1.736125E-6
798.000000	1.021980	-1.623103E-6
799.000000	0.964336	-1.554498E-6
800.000000	0.912775	-1.532935E-6
801.000000	0.867349	-1.524464E-6
802.000000	0.824247	-1.466158E-6
803.000000	0.783780	-1.354811E-6
804.000000	0.744818	-1.221912E-6
805.000000	0.708001	-1.120529E-6
806.000000	0.670648	-1.055498E-6
807.000000	0.638411	-1.035038E-6
808.000000	0.611603	-1.044695E-6
809.000000	0.583239	-1.013714E-6
810.000000	0.557234	-9.416668E-7
811.000000	0.529179	-8.672093E-7
812.000000	0.507124	-7.856465E-7
813.000000	0.482161	-7.249626E-7
814.000000	0.460358	-7.123002E-7
815.000000	0.437460	-7.051356E-7
816.000000	0.418595	-7.065975E-7
817.000000	0.402497	-6.795977E-7
818.000000	0.385651	-6.141852E-7
819.000000	0.368768	-5.555222E-7
820.000000	0.354009	-5.172603E-7
821.000000	0.338325	-4.981457E-7
822.000000	0.323253	-5.023342E-7
823.000000	0.309081	-5.078787E-7
824.000000	0.297493	-4.955146E-7
825.000000	0.284665	-4.639614E-7
826.000000	0.274244	-4.249118E-7
827.000000	0.263293	-3.953197E-7
828.000000	0.253195	-3.838462E-7
829.000000	0.243103	-3.756954E-7
830.000000	0.232530	-3.738602E-7
831.000000	0.222531	-3.680661E-7
832.000000	0.213598	-3.491292E-7
833.000000	0.206699	-3.251153E-7
834.000000	0.197840	-2.962321E-7
835.000000	0.189781	-2.751705E-7
836.000000	0.181521	-2.676230E-7
837.000000	0.174683	-2.664358E-7
838.000000	0.167280	-2.614771E-7
839.000000	0.161346	-2.544037E-7
840.000000	0.155796	-2.419092E-7
841.000000	0.149298	-2.217566E-7
842.000000	0.142836	-2.069153E-7
843.000000	0.137234	-2.015913E-7
844.000000	0.132272	-1.985294E-7
845.000000	0.126881	-1.943758E-7
846.000000	0.122225	-1.883081E-7
847.000000	0.117887	-1.787483E-7
848.000000	0.113407	-1.649575E-7
849.000000	0.108965	-1.518747E-7
850.000000	0.104538	-1.458241E-7
851.000000	0.100601	-1.424365E-7
852.000000	0.096619	-1.381879E-7
853.000000	0.092542	-1.342918E-7
854.000000	0.089436	-1.276756E-7
855.000000	0.085644	-1.178370E-7
856.000000	0.082628	-1.101489E-7
857.000000	0.079552	-1.035325E-7
858.000000	0.076376	-1.000873E-7
859.000000	0.073046	-9.760881E-8
860.000000	0.070350	-9.316064E-8
861.000000	0.067693	-8.688927E-8
862.000000	0.065001	-7.978345E-8
863.000000	0.062565	-7.328077E-8
864.000000	0.060237	-6.926454E-8
865.000000	0.058003	-6.627623E-8
866.000000	0.055890	-6.292355E-8
867.000000	0.053288	-6.036045E-8
868.000000	0.051315	-5.674903E-8
869.000000	0.049428	-5.201463E-8
870.000000	0.047647	-4.860540E-8
871.000000	0.045772	-4.573876E-8
872.000000	0.043833	-4.319459E-8
873.000000	0.042087	-4.168731E-8
874.000000	0.040397	-3.961626E-8
875.000000	0.038812	-3.716585E-8
876.000000	0.037347	-3.465252E-8
877.000000	0.036080	-3.234069E-8
878.000000	0.034628	-3.057103E-8
879.000000	0.033297	-2.902346E-8
880.000000	0.031991	-2.757466E-8
881.000000	0.030812	-2.651929E-8
882.000000	0.029382	-2.489648E-8
883.000000	0.028142	-2.347626E-8
884.000000	0.027143	-2.236099E-8
885.000000	0.026002	-2.085816E-8
886.000000	0.024923	-1.957549E-8
887.000000	0.024075	-1.894929E-8
888.000000	0.023100	-1.816963E-8
889.000000	0.022102	-1.729542E-8
890.000000	0.021298	-1.646532E-8
891.000000	0.020507	-1.561117E-8
892.000000	0.019695	-1.474491E-8
893.000000	0.018885	-1.408221E-8
894.000000	0.018125	-1.374150E-8
895.000000	0.017451	-1.318995E-8
896.000000	0.016709	-1.247176E-8
897.000000	0.016047	-1.199433E-8
898.000000	0.015411	-1.141424E-8
899.000000	0.014754	-1.089701E-8
900.000000	0.014240	-1.049370E-8
901.000000	0.013619	-9.994960E-9
902.000000	0.013084	-9.660546E-9
903.000000	0.012535	-9.175516E-9
904.000000	0.012093	-8.801382E-9
905.000000	0.011572	-8.523457E-9
906.000000	0.011114	-8.125158E-9
907.000000	0.010694	-7.800422E-9
908.000000	0.010232	-7.483363E-9
909.000000	0.009804	-7.112254E-9
910.000000	0.009418	-6.869791E-9
911.000000	0.009079	-6.609845E-9
912.000000	0.008669	-6.326709E-9
913.000000	0.008320	-6.132022E-9
914.000000	0.007993	-5.853415E-9
915.000000	0.007647	-5.592380E-9
916.000000	0.007360	-5.327074E-9
917.000000	0.007057	-5.044832E-9
918.000000	0.006772	-4.912497E-9
919.000000	0.006500	-4.722007E-9
920.000000	0.006225	-4.453242E-9
921.000000	0.005977	-4.305550E-9
922.000000	0.005729	-4.100417E-9
923.000000	0.005511	-3.903791E-9
924.000000	0.005301	-3.767954E-9
925.000000	0.005069	-3.574150E-9
926.000000	0.004860	-3.451971E-9
927.000000	0.004674	-3.330885E-9
928.000000	0.004487	-3.171361E-9
929.000000	0.004300	-3.046743E-9
930.000000	0.004139	-2.860954E-9
931.000000	0.003963	-2.692921E-9
932.000000	0.003820	-2.593965E-9
933.000000	0.003672	-2.459039E-9
934.000000	0.003518	-2.365102E-9
935.000000	0.003387	-2.270607E-9
936.000000	0.003241	-2.146593E-9
937.000000	0.003120	-2.076811E-9
938.000000	0.003011	-1.972815E-9
939.000000	0.002895	-1.874597E-9
940.000000	0.002778	-1.820684E-9
941.000000	0.002665	-1.737417E-9
942.000000	0.002559	-1.672219E-9
943.000000	0.002464	-1.606703E-9
944.000000	0.002363	-1.503283E-9
945.000000	0.002270	-1.426263E-9
946.000000	0.002203	-1.364870E-9
947.000000	0.002119	-1.295166E-9
948.000000	0.002036	-1.255643E-9
949.000000	0.001968	-1.204475E-9
950.000000	0.001896	-1.155770E-9
951.000000	0.001820	-1.104615E-9
952.000000	0.001760	-1.049211E-9
953.000000	0.001698	-1.014708E-9
954.000000	0.001645	-9.817009E-10
955.000000	0.001583	-9.351492E-10
956.000000	0.001535	-9.122545E-10
957.000000	0.001474	-8.675741E-10
958.000000	0.001427	-8.257681E-10
959.000000	0.001387	-7.927665E-10
960.000000	0.001341	-7.467433E-10
961.000000	0.001290	-7.127918E-10
962.000000	0.001254	-6.911584E-10
963.000000	0.001207	-6.622218E-10
964.000000	0.001168	-6.464668E-10
965.000000	0.001143	-6.243051E-10
966.000000	0.001098	-5.914386E-10
967.000000	0.001070	-5.758004E-10
968.000000	0.001041	-5.536977E-10
969.000000	0.001009	-5.366393E-10
970.000000	0.000976	-5.178746E-10
971.000000	0.000952	-4.963707E-10
972.000000	0.000928	-4.782272E-10
973.000000	0.000897	-4.533325E-10
974.000000	0.000881	-4.355413E-10
975.000000	0.000864	-4.224489E-10
976.000000	0.000839	-4.055374E-10
977.000000	0.000814	-3.931546E-10
978.000000	0.000794	-3.851654E-10
979.000000	0.000776	-3.739264E-10
980.000000	0.000756	-3.631156E-10
981.000000	0.000744	-3.542933E-10
982.000000	0.000722	-3.423268E-10
983.000000	0.000701	-3.348478E-10
984.000000	0.000684	-3.243421E-10
985.000000	0.000665	-3.124755E-10
986.000000	0.000659	-3.057532E-10
987.000000	0.000649	-2.947253E-10
988.000000	0.000639	-2.852636E-10
989.000000	0.000634	-2.801075E-10
990.000000	0.000626	-2.732680E-10
991.000000	0.000613	-2.683464E-10
992.000000	0.000590	-2.599878E-10
993.000000	0.000575	-2.553713E-10
994.000000	0.000576	-2.593777E-10
995.000000	0.000549	-2.472294E-10
996.000000	0.000539	-2.432758E-10
997.000000	0.000534	-2.406654E-10
998.000000	0.000522	-2.351105E-10
999.000000	0.000501	-2.265757E-10
1000.000000	0.000509	-2.284408E-10
1001.000000	0.000490	-2.186861E-10
1002.000000	0.000495	-2.201995E-10
1003.000000	0.000483	-2.125974E-10
1004.000000	0.000489	-2.128963E-10
1005.000000	0.000462	-2.015341E-10
1006.000000	0.000458	-2.007658E-10
1007.000000	0.000457	-2.032530E-10
1008.000000	0.000438	-1.961025E-10
1009.000000	0.000425	-1.900252E-10
1010.000000	0.000430	-1.936974E-10
1011.000000	0.000411	-1.842593E-10
1012.000000	0.000402	-1.811093E-10
1013.000000	0.000395	-1.811974E-10
1014.000000	0.000397	-1.827985E-10
1015.000000	0.000392	-1.802765E-10
1016.000000	0.000375	-1.732140E-10
1017.000000	0.000382	-1.788451E-10
1018.000000	0.000366	-1.753550E-10
1019.000000	0.000342	-1.696298E-10
1020.000000	0.000326	-1.673950E-10
1021.000000	0.000324	-1.707033E-10
1022.000000	0.000318	-1.674712E-10
1023.000000	0.000312	-1.648433E-10
1024.000000	0.000301	-1.629134E-10
1025.000000	0.000292	-1.644210E-10
1026.000000	0.000277	-1.635528E-10
1027.000000	0.000263	-1.629780E-10
1028.000000	0.000252	-1.642274E-10
1029.000000	0.000239	-1.645911E-10
1030.000000	0.000231	-1.651777E-10
1031.000000	0.000222	-1.630014E-10
1032.000000	0.000218	-1.622916E-10
1033.000000	0.000216	-1.598867E-10
1034.000000	0.000219	-1.569537E-10
1035.000000	0.000221	-1.502313E-10
1036.000000	0.000230	-1.469289E-10
1037.000000	0.000231	-1.391330E-10
1038.000000	0.000237	-1.365874E-10
1039.000000	0.000245	-1.370450E-10
1040.000000	0.000245	-1.343349E-10
1041.000000	0.000245	-1.333846E-10
1042.000000	0.000244	-1.315426E-10
1043.000000	0.000241	-1.289735E-10
1044.000000	0.000233	-1.244743E-10
1045.000000	0.000241	-1.297771E-10
1046.000000	0.000237	-1.297418E-10
1047.000000	0.000224	-1.264336E-10
1048.000000	0.000218	-1.275774E-10
1049.000000	0.000206	-1.239582E-10
1050.000000	0.000201	-1.246795E-10
1051.000000	0.000195	-1.235709E-10
1052.000000	0.000188	-1.225504E-10
1053.000000	0.000184	-1.245390E-10
1054.000000	0.000170	-1.194004E-10
1055.000000	0.000165	-1.207612E-10
1056.000000	0.000156	-1.208257E-10
1057.000000	0.000148	-1.212834E-10
1058.000000	0.000143	-1.244390E-10
1059.000000	0.000131	-1.242514E-10
1060.000000	0.000118	-1.270729E-10
1061.000000	0.000103	-1.301585E-10
1062.000000	8.852546E-5	-1.387520E-10
1063.000000	6.594508E-5	-1.629018E-10
1064.000000	4.517601E-5	-2.096937E-10
1065.000000	4.315751E-5	-2.269628E-10
1066.000000	5.059839E-5	-1.801767E-10
1067.000000	6.760415E-5	-1.399251E-10
1068.000000	8.059688E-5	-1.239934E-10
1069.000000	9.681614E-5	-1.153821E-10
1070.000000	0.000116	-1.114580E-10
1071.000000	0.000124	-1.056684E-10
1072.000000	0.000130	-1.011517E-10
1073.000000	0.000139	-1.010051E-10
1074.000000	0.000150	-1.015213E-10
1075.000000	0.000160	-1.031520E-10
1076.000000	0.000162	-9.984366E-11
1077.000000	0.000169	-1.012749E-10
1078.000000	0.000165	-9.600733E-11
1079.000000	0.000172	-9.705727E-11
1080.000000	0.000171	-9.519784E-11
1081.000000	0.000174	-9.444109E-11
1082.000000	0.000179	-9.525060E-11
1083.000000	0.000169	-8.878061E-11
1084.000000	0.000175	-9.028228E-11
1085.000000	0.000178	-9.079841E-11
1086.000000	0.000179	-9.098614E-11
1087.000000	0.000170	-8.492665E-11
1088.000000	0.000184	-9.122077E-11
1089.000000	0.000183	-9.028224E-11
1090.000000	0.000176	-8.684486E-11
1091.000000	0.000191	-9.312136E-11
1092.000000	0.000185	-8.885095E-11
1093.000000	0.000192	-9.132052E-11
1094.000000	0.000178	-8.365966E-11
1095.000000	0.000187	-8.602939E-11
1096.000000	0.000193	-8.824677E-11
1097.000000	0.000189	-8.668651E-11
1098.000000	0.000183	-8.344854E-11
1099.000000	0.000179	-8.375936E-11
1100.000000	0.000179	-8.606464E-11
